title:Session_020_29Jun2026,start timestamp:1782733233.489478,stop timestamp:1782733283.890845,headset type:EPOCX,headset serial:E7020186,headset firmware:740,channels:98,sampling rate:eeg_256;pm_0.1;mot_32,samples:12911,version:2.2,,,,,,,,,,,,,,,,,,,,,,,,,,,,,,,,,,,,,,,,,,,,,,,,,,,,,,,,,,,,,,,,,,,,,,,,,,,,,,,,,,,,,,,,,
Timestamp,OriginalTimestamp,EEG.Counter,EEG.Interpolated,EEG.AF3,EEG.F7,EEG.F3,EEG.FC5,EEG.T7,EEG.P7,EEG.O1,EEG.O2,EEG.P8,EEG.T8,EEG.FC6,EEG.F4,EEG.F8,EEG.AF4,EEG.RawCq,EEG.Battery,EEG.BatteryPercent,MarkerIndex,MarkerType,MarkerValueInt,EEG.MarkerHardware,CQ.AF3,CQ.F7,CQ.F3,CQ.FC5,CQ.T7,CQ.P7,CQ.O1,CQ.O2,CQ.P8,CQ.T8,CQ.FC6,CQ.F4,CQ.F8,CQ.AF4,CQ.Overall,EQ.SampleRateQuality,EQ.OVERALL,EQ.AF3,EQ.F7,EQ.F3,EQ.FC5,EQ.T7,EQ.P7,EQ.O1,EQ.O2,EQ.P8,EQ.T8,EQ.FC6,EQ.F4,EQ.F8,EQ.AF4,PM.Attention.IsActive,PM.Attention.Scaled,PM.Attention.Raw,PM.Attention.Min,PM.Attention.Max,PM.Engagement.IsActive,PM.Engagement.Scaled,PM.Engagement.Raw,PM.Engagement.Min,PM.Engagement.Max,PM.Excitement.IsActive,PM.Excitement.Scaled,PM.Excitement.Raw,PM.Excitement.Min,PM.Excitement.Max,PM.LongTermExcitement,PM.Stress.IsActive,PM.Stress.Scaled,PM.Stress.Raw,PM.Stress.Min,PM.Stress.Max,PM.Relaxation.IsActive,PM.Relaxation.Scaled,PM.Relaxation.Raw,PM.Relaxation.Min,PM.Relaxation.Max,PM.Interest.IsActive,PM.Interest.Scaled,PM.Interest.Raw,PM.Interest.Min,PM.Interest.Max,MOT.CounterMems,MOT.InterpolatedMems,MOT.Q0,MOT.Q1,MOT.Q2,MOT.Q3,MOT.AccX,MOT.AccY,MOT.AccZ,MOT.MagX,MOT.MagY,MOT.MagZ
1782733233,1782733233,47,0,4571.538574,4300.641113,4279.615234,4591.153809,4247.563965,3679.487061,4109.487305,4152.179688,4277.307617,4214.102539,4500.128418,4290.641113,3888.205078,4411.410156,0,2,44,,,,0,4,0,2,0,0,0,4,4,0,0,4,0,0,4,0,,,,,,,,,,,,,,,,,,,,,,,,,,,,,,,,,,,,,,,,,,,,,,,,,,,,,,,,,,,
1782733233,1782733233,48,0,4561.025879,4300.641113,4278.333496,4588.846191,4249.487305,3682.05127,4114.102539,4149.871582,4276.922852,4216.410156,4490.128418,4290.384766,3889.487061,4407.820313,0,2,44,,,,0,4,0,2,0,0,0,4,4,0,0,4,0,0,4,0,,,,,,,,,,,,,,,,,,,,,,,,,,,,,,,,,,,,,,,,,,,,,,,,6,0,0.142706,0.354187,-0.722107,-0.576843,-0.202661,0.958979,-0.324869,-65.127235,-18.557127,-5.602954
1782733233,1782733234,49,0,4555.256348,4301.025879,4279.615234,4586.666504,4255,3684.615479,4111.666504,4151.666504,4273.974121,4216.410156,4481.794922,4290.769043,3891.153809,4407.692383,0,2,44,,,,0,4,0,2,0,0,0,4,4,0,0,4,0,0,4,0,,,,,,,,,,,,,,,,,,,,,,,,,,,,,,,,,,,,,,,,,,,,,,,,,,,,,,,,,,,
1782733234,1782733234,50,0,4553.974121,4301.538574,4282.820313,4584.102539,4260,3686.410156,4103.717773,4155.897461,4271.025879,4213.974121,4479.871582,4291.794922,3892.820557,4412.436035,0,2,44,,,,0,4,0,2,0,0,0,4,4,0,0,4,0,0,4,0,,,,,,,,,,,,,,,,,,,,,,,,,,,,,,,,,,,,,,,,,,,,,,,,,,,,,,,,,,,
1782733234,1782733234,51,0,4556.282227,4302.179688,4286.666504,4580.512695,4260.384766,3687.179443,4098.846191,4159.102539,4270.769043,4210.897461,4486.410156,4293.717773,3894.230713,4420.641113,0,2,44,,,,0,4,0,2,0,0,0,4,4,0,0,4,0,0,4,0,,,,,,,,,,,,,,,,,,,,,,,,,,,,,,,,,,,,,,,,,,,,,,,,,,,,,,,,,,,
1782733234,1782733234,52,0,4560.256348,4302.692383,4290,4576.666504,4255.384766,3688.846191,4104.102539,4159.102539,4273.974121,4209.487305,4497.436035,4296.282227,3895.641113,4427.820313,0,2,44,,,,0,4,0,2,0,0,0,4,4,0,0,4,0,0,4,0,,,,,,,,,,,,,,,,,,,,,,,,,,,,,,,,,,,,,,,,,,,,,,,,,,,,,,,,,,,
1782733234,1782733234,53,0,4562.436035,4302.692383,4291.538574,4573.717773,4248.333496,3693.461426,4116.666504,4156.666504,4279.615234,4210.128418,4505.384766,4298.077148,3896.923096,4428.205078,0,2,44,,,,0,4,0,2,0,0,0,4,4,0,0,4,0,0,4,0,,,,,,,,,,,,,,,,,,,,,,,,,,,,,,,,,,,,,,,,,,,,,,,,,,,,,,,,,,,
1782733234,1782733234,54,0,4559.230957,4302.307617,4290.512695,4573.077148,4242.94873,3701.794922,4124.743652,4155.128418,4284.743652,4212.05127,4504.102539,4298.461426,3897.820557,4419.871582,0,2,44,,,,0,4,0,2,0,0,0,4,4,0,0,4,0,0,4,0,,,,,,,,,,,,,,,,,,,,,,,,,,,,,,,,,,,,,,,,,,,,,,,,,,,,,,,,,,,
1782733234,1782733234,55,0,4548.974121,4302.179688,4287.820313,4574.871582,4240.256348,3712.05127,4119.487305,4157.179688,4285.512695,4214.102539,4495.384766,4298.077148,3897.94873,4407.692383,0,2,44,,,,0,4,0,2,0,0,0,4,4,0,0,4,0,0,4,0,,,,,,,,,,,,,,,,,,,,,,,,,,,,,,,,,,,,,,,,,,,,,,,,,,,,,,,,,,,
1782733234,1782733234,56,0,4534.871582,4302.179688,4285.256348,4577.179688,4239.230957,3720.769287,4103.717773,4163.461426,4279.871582,4215.128418,4487.307617,4298.333496,3897.435791,4399.871582,0,2,44,,,,0,4,0,2,0,0,0,4,4,0,0,4,0,0,4,0,,,,,,,,,,,,,,,,,,,,,,,,,,,,,,,,,,,,,,,,,,,,,,,,7,0,0.14344,0.353516,-0.722534,-0.576538,-0.188988,0.958003,-0.31559,-65.081177,-18.501415,-5.575992
1782733234,1782733234,57,0,4523.333496,4302.692383,4285.128418,4577.820313,4239.102539,3725.256348,4090.897461,4171.666504,4271.282227,4214.358887,4487.436035,4299.743652,3896.794922,4401.538574,0,2,44,,,,0,4,0,2,0,0,0,4,4,0,0,4,0,0,4,0,,,,,,,,,,,,,,,,,,,,,,,,,,,,,,,,,,,,,,,,,,,,,,,,,,,,,,,,,,,
1782733234,1782733234,58,0,4518.974121,4303.333496,4287.179688,4575.641113,4239.615234,3725.769287,4092.692383,4177.563965,4268.077148,4212.436035,4495.641113,4302.05127,3896.410156,4410.641113,0,2,44,,,,0,4,0,2,0,0,0,4,4,0,0,4,0,0,4,0,,,,,,,,,,,,,,,,,,,,,,,,,,,,,,,,,,,,,,,,,,,,,,,,,,,,,,,,,,,
1782733234,1782733234,59,0,4521.282227,4304.358887,4289.230957,4571.538574,4240.897461,3724.230713,4109.871582,4177.563965,4275.128418,4210.769043,4503.717773,4303.974121,3896.538574,4420.128418,0,2,44,,,,0,4,0,2,0,0,0,4,4,0,0,4,0,0,4,0,,,,,,,,,,,,,,,,,,,,,,,,,,,,,,,,,,,,,,,,,,,,,,,,,,,,,,,,,,,
1782733234,1782733234,60,0,4524.230957,4305.384766,4288.205078,4567.179688,4242.05127,3723.461426,4131.922852,4170.897461,4285.641113,4210.769043,4500.641113,4304.487305,3896.794922,4422.563965,0,2,44,,,,0,4,0,2,0,0,0,4,4,0,0,4,0,0,4,0,,,,,,,,,,,,,,,,,,,,,,,,,,,,,,,,,,,,,,,,,,,,,,,,,,,,,,,,,,,
1782733234,1782733234,61,0,4521.666504,4306.153809,4282.563965,4563.717773,4241.922852,3724.615479,4145.256348,4161.153809,4281.922852,4212.436035,4480.769043,4302.820313,3896.794922,4415.128418,0,2,44,,,,0,4,0,2,0,0,0,4,4,0,0,4,0,0,4,0,,,,,,,,,,,,,,,,,,,,,,,,,,,,,,,,,,,,,,,,,,,,,,,,,,,,,,,,,,,
1782733234,1782733234,62,0,4511.538574,4306.025879,4274.615234,4561.666504,4240.512695,3728.076904,4144.102539,4153.846191,4246.282227,4214.871582,4450,4298.974121,3896.025635,4401.794922,0,2,44,,,,0,4,0,2,0,0,0,4,4,0,0,4,0,0,4,0,,,,,,,,,,,,,,,,,,,,,,,,,,,,,,,,,,,,,,,,,,,,,,,,,,,,,,,,,,,
1782733234,1782733234,63,0,4497.307617,4305,4269.358887,4560.897461,4239.102539,3732.564209,4133.974121,4154.358887,4175.256348,4217.05127,4425.256348,4294.487305,3894.871826,4390.384766,0,2,44,,,,0,4,0,2,0,0,0,4,4,0,0,4,0,0,4,0,,,,,,,,,,,,,,,,,,,,,,,,,,,,,,,,,,,,,,,,,,,,,,,,,,,,,,,,,,,
1782733234,1782733234,64,0,4485.384766,4303.717773,4270.641113,4560.897461,4239.102539,3737.564209,4125.769043,4162.692383,4085.769287,4218.589844,4423.717773,4292.05127,3893.461426,4387.179688,0,2,44,,,,0,4,0,2,0,0,0,4,4,0,0,4,0,0,4,0,,,,,,,,,,,,,,,,,,,,,,,,,,,,,,,,,,,,,,,,,,,,,,,,8,0,0.1457,0.352417,-0.721985,-0.577332,-0.163106,0.945306,-0.26871,-65.173065,-18.534607,-5.551726
1782733234,1782733234,65,0,4480.512695,4303.333496,4278.846191,4561.538574,4241.153809,3742.307617,4126.794922,4174.487305,4006.025635,4220,4450.128418,4293.077148,3891.538574,4392.820313,0,2,44,,,,0,4,0,2,0,0,0,4,4,0,0,4,0,0,4,0,,,,,,,,,,,,,,,,,,,,,,,,,,,,,,,,,,,,,,,,,,,,,,,,,,,,,,,,,,,
1782733234,1782733234,66,0,4483.077148,4304.102539,4290.384766,4562.692383,4244.102539,3746.025635,4134.871582,4184.230957,3957.820557,4221.666504,4490,4297.436035,3888.718018,4402.436035,0,2,44,,,,0,4,0,2,0,0,0,4,4,0,0,4,0,0,4,0,,,,,,,,,,,,,,,,,,,,,,,,,,,,,,,,,,,,,,,,,,,,,,,,,,,,,,,,,,,
1782733234,1782733234,67,0,4488.846191,4305.256348,4300.128418,4563.974121,4246.410156,3748.718018,4141.538574,4188.846191,3944.871826,4222.94873,4519.230957,4302.436035,3885.641113,4410.512695,0,2,44,,,,0,4,0,2,0,0,0,4,4,0,0,4,0,0,4,0,,,,,,,,,,,,,,,,,,,,,,,,,,,,,,,,,,,,,,,,,,,,,,,,,,,,,,,,,,,
1782733234,1782733234,68,0,4492.179688,4305.769043,4304.358887,4564.487305,4246.538574,3750.769287,4140.256348,4189.743652,3952.820557,4223.461426,4521.922852,4306.025879,3883.461426,4414.358887,0,2,44,,,,0,4,0,2,0,0,0,4,4,0,0,4,0,0,4,0,,,,,,,,,,,,,,,,,,,,,,,,,,,,,,,,,,,,,,,,,,,,,,,,,,,,,,,,,,,
1782733234,1782733234,69,0,4490.256348,4305,4303.205078,4563.589844,4244.487305,3753.076904,4132.179688,4190.128418,3961.923096,4223.205078,4502.94873,4308.333496,3882.692383,4414.871582,0,2,44,,,,0,4,0,2,0,0,0,4,4,0,0,4,0,0,4,0,,,,,,,,,,,,,,,,,,,,,,,,,,,,,,,,,,,,,,,,,,,,,,,,,,,,,,,,,,,
1782733234,1782733234,70,0,4484.230957,4303.205078,4299.358887,4562.05127,4242.436035,3755.384521,4125,4191.538574,3960.128174,4223.974121,4483.077148,4311.025879,3882.820557,4414.230957,0,2,44,,,,0,4,0,2,0,0,0,4,4,0,0,4,0,0,4,0,,,,,,,,,,,,,,,,,,,,,,,,,,,,,,,,,,,,,,,,,,,,,,,,,,,,,,,,,,,
1782733234,1782733234,71,0,4478.461426,4301.025879,4296.794922,4561.922852,4242.94873,3757.05127,4124.871582,4193.974121,3948.846191,4226.794922,4479.487305,4314.871582,3881.538574,4413.846191,0,2,44,,,,0,4,0,2,0,0,0,4,4,0,0,4,0,0,4,0,,,,,,,,,,,,,,,,,,,,,,,,,,,,,,,,,,,,,,,,,,,,,,,,,,,,,,,,,,,
1782733234,1782733234,72,0,4476.153809,4300.256348,4297.05127,4564.743652,4245.897461,3759.487061,4131.922852,4196.025879,3937.05127,4230.897461,4492.179688,4318.461426,3876.666748,4413.589844,0,2,44,,,,0,4,0,2,0,0,0,4,4,0,0,4,0,0,4,0,,,,,,,,,,,,,,,,,,,,,,,,,,,,,,,,,,,,,,,,,,,,,,,,9,0,0.146759,0.350647,-0.721802,-0.578369,-0.184105,0.916982,-0.265291,-65.072418,-18.547813,-5.629887
1782733234,1782733234,73,0,4476.922852,4302.307617,4299.615234,4569.615234,4248.974121,3765,4141.538574,4197.05127,3931.794922,4233.717773,4506.282227,4320.256348,3867.692383,4412.179688,0,2,44,,,,0,4,0,2,0,0,0,4,4,0,0,4,0,0,4,0,,,,,,,,,,,,,,,,,,,,,,,,,,,,,,,,,,,,,,,,,,,,,,,,,,,,,,,,,,,
1782733234,1782733234,74,0,4477.307617,4306.922852,4302.307617,4573.333496,4249.230957,3775.512939,4149.358887,4197.307617,3932.94873,4234.230957,4508.077148,4319.743652,3857.435791,4408.717773,0,2,44,,,,0,4,0,2,0,0,0,4,4,0,0,4,0,0,4,0,,,,,,,,,,,,,,,,,,,,,,,,,,,,,,,,,,,,,,,,,,,,,,,,,,,,,,,,,,,
1782733234,1782733234,75,0,4473.461426,4311.538574,4302.820313,4572.820313,4247.05127,3789.615479,4153.589844,4197.820313,3935.256348,4233.333496,4496.922852,4317.820313,3849.871826,4402.692383,0,2,44,,,,0,4,0,2,0,0,0,4,4,0,0,4,0,0,4,0,,,,,,,,,,,,,,,,,,,,,,,,,,,,,,,,,,,,,,,,,,,,,,,,,,,,,,,,,,,
1782733234,1782733234,76,0,4464.871582,4313.077148,4300.512695,4567.820313,4244.871582,3803.205078,4154.358887,4198.974121,3934.871826,4233.077148,4482.563965,4315.897461,3847.564209,4394.743652,0,2,44,,,,0,4,0,2,0,0,0,4,4,0,0,4,0,0,4,0,,,,,,,,,,,,,,,,,,,,,,,,,,,,,,,,,,,,,,,,,,,,,,,,,,,,,,,,,,,
1782733234,1782733234,77,0,4454.487305,4311.025879,4296.538574,4563.205078,4245.384766,3811.410156,4153.077148,4200.641113,3933.333252,4234.358887,4474.615234,4315,3848.974365,4386.410156,0,2,44,,,,0,4,0,2,0,0,0,4,4,0,0,4,0,0,4,0,,,,,,,,,,,,,,,,,,,,,,,,,,,,,,,,,,,,,,,,,,,,,,,,,,,,,,,,,,,
1782733234,1782733234,78,0,4446.922852,4307.820313,4293.077148,4565.512695,4248.974121,3812.179443,4152.05127,4201.666504,3934.487061,4236.025879,4474.871582,4315.384766,3851.025635,4380.384766,0,2,44,,,,0,4,0,2,0,0,0,4,4,0,0,4,0,0,4,0,,,,,,,,,,,,,,,,,,,,,,,,,,,,,,,,,,,,,,,,,,,,,,,,,,,,,,,,,,,
1782733234,1782733234,79,0,4446.025879,4306.538574,4292.307617,4579.102539,4254.487305,3807.435791,4153.589844,4201.410156,3939.230713,4236.025879,4479.487305,4316.666504,3851.410156,4378.589844,0,2,44,,,,0,4,0,2,0,0,0,4,4,0,0,4,0,0,4,0,,,,,,,,,,,,,,,,,,,,,,,,,,,,,,,,,,,,,,,,,,,,,,,,,,,,,,,,,,,
1782733234,1782733234,80,0,4451.794922,4308.205078,4294.743652,4601.538574,4260.641113,3802.05127,4158.974121,4199.743652,3944.743652,4234.102539,4484.615234,4318.077148,3851.025635,4380.769043,0,2,44,,,,0,4,0,2,0,0,0,4,4,0,0,4,0,0,4,0,,,,,,,,,,,,,,,,,,,,,,,,,,,,,,,,,,,,,,,,,,,,,,,,10,0,0.147907,0.347961,-0.721741,-0.579773,-0.188988,0.938957,-0.276035,-65.065178,-18.643032,-5.583565
1782733234,1782733234,81,0,4460.256348,4311.153809,4298.461426,4625,4266.666504,3801.666748,4165.897461,4197.563965,3948.333252,4231.666504,4487.820313,4318.717773,3851.794922,4383.333496,0,2,44,,,,0,4,0,2,0,0,0,4,4,0,0,4,0,0,4,0,,,,,,,,,,,,,,,,,,,,,,,,,,,,,,,,,,,,,,,,,,,,,,,,,,,,,,,,,,,
1782733234,1782733234,82,0,4465.769043,4312.820313,4300.769043,4640.897461,4272.563965,3808.333252,4170.641113,4194.743652,3950,4230.512695,4488.846191,4318.333496,3854.615479,4383.205078,0,2,44,,,,0,4,0,2,0,0,0,4,4,0,0,4,0,0,4,0,,,,,,,,,,,,,,,,,,,,,,,,,,,,,,,,,,,,,,,,,,,,,,,,,,,,,,,,,,,
1782733234,1782733234,83,0,4466.538574,4312.05127,4301.025879,4645.769043,4278.461426,3820.897461,4171.666504,4191.282227,3950.897461,4230.897461,4488.846191,4317.820313,3858.205078,4380.128418,0,2,44,,,,0,4,0,2,0,0,0,4,4,0,0,4,0,0,4,0,,,,,,,,,,,,,,,,,,,,,,,,,,,,,,,,,,,,,,,,,,,,,,,,,,,,,,,,,,,
1782733234,1782733234,84,0,4465.897461,4309.871582,4300.897461,4641.922852,4283.974121,3835.128174,4170.641113,4187.307617,3951.153809,4231.922852,4491.794922,4317.692383,3860.128174,4376.794922,0,2,44,,,,0,4,0,2,0,0,0,4,4,0,0,4,0,0,4,0,,,,,,,,,,,,,,,,,,,,,,,,,,,,,,,,,,,,,,,,,,,,,,,,,,,,,,,,,,,
1782733234,1782733234,85,0,4469.615234,4307.820313,4302.179688,4635.769043,4288.461426,3847.05127,4169.743652,4184.230957,3949.871826,4232.563965,4501.410156,4318.077148,3858.974365,4376.666504,0,2,44,,,,0,4,0,2,0,0,0,4,4,0,0,4,0,0,4,0,,,,,,,,,,,,,,,,,,,,,,,,,,,,,,,,,,,,,,,,,,,,,,,,,,,,,,,,,,,
1782733234,1782733234,86,0,4480.128418,4307.05127,4304.871582,4631.922852,4291.025879,3855.128174,4170,4183.717773,3946.666748,4232.179688,4515.769043,4318.461426,3856.025635,4380.641113,0,2,44,,,,0,4,0,2,0,0,0,4,4,0,0,4,0,0,4,0,,,,,,,,,,,,,,,,,,,,,,,,,,,,,,,,,,,,,,,,,,,,,,,,,,,,,,,,,,,
1782733234,1782733234,87,0,4493.333496,4307.692383,4307.820313,4631.410156,4291.538574,3860.512939,4170.641113,4185.256348,3944.615479,4231.282227,4524.102539,4318.846191,3854.230713,4386.794922,0,2,44,,,,0,4,0,2,0,0,0,4,4,0,0,4,0,0,4,0,,,,,,,,,,,,,,,,,,,,,,,,,,,,,,,,,,,,,,,,,,,,,,,,,,,,,,,,,,,
1782733234,1782733234,88,0,4501.922852,4309.358887,4308.974121,4632.307617,4290.641113,3865.769287,4170.769043,4185.256348,3949.230713,4230.769043,4513.589844,4319.743652,3855.769287,4391.025879,0,2,44,,,,0,4,0,2,0,0,0,4,4,0,0,4,0,0,4,0,,,,,,,,,,,,,,,,,,,,,,,,,,,,,,,,,,,,,,,,,,,,,,,,11,0,0.14785,0.347168,-0.721497,-0.580566,-0.201196,0.915517,-0.276523,-65.02533,-18.695395,-5.325209
1782733234,1782733234,89,0,4500.256348,4311.794922,4307.563965,4632.563965,4289.358887,3872.179443,4170.897461,4179.615234,3963.589844,4231.282227,4480.769043,4321.666504,3859.871826,4390.128418,0,2,44,,,,0,4,0,2,0,0,0,4,4,0,0,4,0,0,4,0,,,,,,,,,,,,,,,,,,,,,,,,,,,,,,,,,,,,,,,,,,,,,,,,,,,,,,,,,,,
1782733234,1782733234,90,0,4488.846191,4314.230957,4304.487305,4631.794922,4288.077148,3879.230713,4172.179688,4167.94873,3982.692383,4231.794922,4437.307617,4323.589844,3864.102539,4383.717773,0,2,44,,,,0,4,0,2,0,0,0,4,4,0,0,4,0,0,4,0,,,,,,,,,,,,,,,,,,,,,,,,,,,,,,,,,,,,,,,,,,,,,,,,,,,,,,,,,,,
1782733234,1782733234,91,0,4475,4315.897461,4301.538574,4631.153809,4285.897461,3885.641113,4176.025879,4155,3995,4230.897461,4405.256348,4323.589844,3866.410156,4375.769043,0,2,44,,,,0,4,0,2,0,0,0,4,4,0,0,4,0,0,4,0,,,,,,,,,,,,,,,,,,,,,,,,,,,,,,,,,,,,,,,,,,,,,,,,,,,,,,,,,,,
1782733234,1782733234,92,0,4468.589844,4316.025879,4301.025879,4630.897461,4282.05127,3890.384521,4182.179688,4147.692383,3992.564209,4228.077148,4404.102539,4321.025879,3867.820557,4372.307617,0,2,44,,,,0,4,0,2,0,0,0,4,4,0,0,4,0,0,4,0,,,,,,,,,,,,,,,,,,,,,,,,,,,,,,,,,,,,,,,,,,,,,,,,,,,,,,,,,,,
1782733234,1782733234,93,0,4475.769043,4314.358887,4305,4630.512695,4277.179688,3892.820557,4189.358887,4150,3981.666748,4224.871582,4438.077148,4317.692383,3870.384521,4376.922852,0,2,44,,,,0,4,0,2,0,0,0,4,4,0,0,4,0,0,4,0,,,,,,,,,,,,,,,,,,,,,,,,,,,,,,,,,,,,,,,,,,,,,,,,,,,,,,,,,,,
1782733234,1782733234,94,0,4493.333496,4311.794922,4312.820313,4627.820313,4273.077148,3892.94873,4194.743652,4159.102539,3982.05127,4223.717773,4490.897461,4316.025879,3875.512939,4388.205078,0,2,44,,,,0,4,0,2,0,0,0,4,4,0,0,4,0,0,4,0,,,,,,,,,,,,,,,,,,,,,,,,,,,,,,,,,,,,,,,,,,,,,,,,,,,,,,,,,,,
1782733234,1782733234,95,0,4509.615234,4309.871582,4321.410156,4622.05127,4272.307617,3892.820557,4196.538574,4168.333496,4014.487061,4225.256348,4535.384766,4317.563965,3882.05127,4400.128418,0,2,44,,,,0,4,0,2,0,0,0,4,4,0,0,4,0,0,4,0,,,,,,,,,,,,,,,,,,,,,,,,,,,,,,,,,,,,,,,,,,,,,,,,,,,,,,,,,,,
1782733234,1782733234,96,0,4512.179688,4309.743652,4326.410156,4614.487305,4275.384766,3895.769287,4195.128418,4171.410156,4083.846191,4227.820313,4550.256348,4321.025879,3887.820557,4406.410156,0,2,44,,,,0,4,0,2,0,0,0,4,4,0,0,4,0,0,4,0,,,,,,,,,,,,,,,,,,,,,,,,,,,,,,,,,,,,,,,,,,,,,,,,12,0,0.148222,0.346802,-0.721252,-0.580994,-0.181663,0.91747,-0.292638,-65.206131,-18.575855,-5.326021
1782733234,1782733234,97,0,4497.05127,4311.282227,4325.897461,4608.846191,4280.641113,3904.743652,4192.436035,4167.436035,4173.077148,4228.974121,4534.358887,4323.974121,3891.538574,4405.384766,0,2,44,,,,0,4,0,2,0,0,0,4,4,0,0,4,0,0,4,0,,,,,,,,,,,,,,,,,,,,,,,,,,,,,,,,,,,,,,,,,,,,,,,,,,,,,,,,,,,
1782733234,1782733234,98,0,4471.538574,4313.077148,4321.282227,4607.179688,4285.128418,3918.333252,4189.871582,4160.512695,4252.563965,4228.205078,4504.871582,4324.487305,3893.718018,4400.769043,0,2,44,,,,0,4,0,2,0,0,0,4,4,0,0,4,0,0,4,0,,,,,,,,,,,,,,,,,,,,,,,,,,,,,,,,,,,,,,,,,,,,,,,,,,,,,,,,,,,
1782733234,1782733234,99,0,4448.461426,4313.717773,4316.666504,4609.487305,4286.153809,3932.307617,4188.461426,4156.410156,4297.692383,4227.179688,4481.794922,4323.077148,3896.794922,4397.94873,0,2,44,,,,0,4,0,2,0,0,0,4,4,0,0,4,0,0,4,0,,,,,,,,,,,,,,,,,,,,,,,,,,,,,,,,,,,,,,,,,,,,,,,,,,,,,,,,,,,
1782733234,1782733234,100,0,4437.05127,4312.436035,4315.641113,4613.589844,4283.717773,3942.179443,4188.077148,4158.077148,4303.589844,4227.563965,4475.384766,4321.922852,3902.179443,4398.846191,0,2,44,,,,0,4,0,2,0,0,0,4,4,0,0,4,0,0,4,0,,,,,,,,,,,,,,,,,,,,,,,,,,,,,,,,,,,,,,,,,,,,,,,,,,,,,,,,,,,
1782733234,1782733234,101,0,4437.179688,4310.128418,4319.230957,4617.179688,4280,3947.179443,4188.461426,4164.230957,4285.641113,4228.717773,4482.820313,4323.077148,3909.358887,4400.897461,0,2,44,,,,0,4,0,2,0,0,0,4,4,0,0,4,0,0,4,0,,,,,,,,,,,,,,,,,,,,,,,,,,,,,,,,,,,,,,,,,,,,,,,,,,,,,,,,,,,
1782733234,1782733234,102,0,4441.794922,4308.333496,4325.512695,4619.102539,4277.94873,3949.743652,4187.94873,4170.641113,4267.05127,4229.358887,4496.153809,4326.794922,3916.025635,4400.897461,0,2,44,,,,0,4,0,2,0,0,0,4,4,0,0,4,0,0,4,0,,,,,,,,,,,,,,,,,,,,,,,,,,,,,,,,,,,,,,,,,,,,,,,,,,,,,,,,,,,
1782733234,1782733234,103,0,4443.589844,4308.461426,4331.538574,4620,4278.717773,3953.461426,4185.384766,4173.589844,4262.563965,4228.717773,4510.128418,4331.153809,3919.871826,4398.077148,0,2,44,,,,0,4,0,2,0,0,0,4,4,0,0,4,0,0,4,0,,,,,,,,,,,,,,,,,,,,,,,,,,,,,,,,,,,,,,,,,,,,,,,,,,,,,,,,,,,
1782733234,1782733234,104,0,4439.358887,4310.641113,4334.615234,4620.512695,4280.897461,3959.358887,4181.153809,4172.436035,4271.282227,4227.563965,4521.410156,4334.358887,3920.512939,4395,0,2,44,,,,0,4,0,2,0,0,0,4,4,0,0,4,0,0,4,0,,,,,,,,,,,,,,,,,,,,,,,,,,,,,,,,,,,,,,,,,,,,,,,,13,0,0.148187,0.346375,-0.720825,-0.581787,-0.20608,0.926261,-0.291173,-65.335518,-18.484936,-5.426752
1782733234,1782733234,105,0,4431.666504,4313.461426,4334.358887,4620.897461,4282.436035,3965.384521,4178.333496,4169.358887,4282.179688,4227.179688,4525.769043,4336.025879,3918.589844,4394.230957,0,2,44,,,,0,4,0,2,0,0,0,4,4,0,0,4,0,0,4,0,,,,,,,,,,,,,,,,,,,,,,,,,,,,,,,,,,,,,,,,,,,,,,,,,,,,,,,,,,,
1782733234,1782733234,106,0,4425.897461,4315.641113,4332.94873,4620.256348,4282.692383,3968.461426,4181.282227,4166.922852,4285.512695,4227.820313,4520.256348,4337.692383,3915.384521,4396.922852,0,2,44,,,,0,4,0,2,0,0,0,4,4,0,0,4,0,0,4,0,,,,,,,,,,,,,,,,,,,,,,,,,,,,,,,,,,,,,,,,,,,,,,,,,,,,,,,,,,,
1782733234,1782733234,107,0,4426.794922,4316.153809,4333.589844,4617.307617,4282.692383,3968.333252,4190.384766,4166.666504,4280.256348,4228.846191,4508.589844,4340.641113,3911.923096,4402.179688,0,2,44,,,,0,4,0,2,0,0,0,4,4,0,0,4,0,0,4,0,,,,,,,,,,,,,,,,,,,,,,,,,,,,,,,,,,,,,,,,,,,,,,,,,,,,,,,,,,,
1782733234,1782733234,108,0,4435.128418,4315.128418,4337.563965,4611.025879,4283.077148,3967.564209,4200.641113,4168.717773,4273.077148,4229.102539,4503.077148,4344.487305,3908.974365,4408.846191,0,2,44,,,,0,4,0,2,0,0,0,4,4,0,0,4,0,0,4,0,,,,,,,,,,,,,,,,,,,,,,,,,,,,,,,,,,,,,,,,,,,,,,,,,,,,,,,,,,,
1782733234,1782733234,109,0,4446.794922,4313.333496,4343.717773,4601.666504,4283.589844,3968.974365,4203.846191,4171.922852,4270,4228.461426,4513.589844,4347.436035,3907.564209,4415.897461,0,2,44,,,,0,4,0,2,0,0,0,4,4,0,0,4,0,0,4,0,,,,,,,,,,,,,,,,,,,,,,,,,,,,,,,,,,,,,,,,,,,,,,,,,,,,,,,,,,,
1782733234,1782733234,110,0,4454.358887,4311.794922,4348.974121,4591.538574,4282.820313,3973.076904,4197.436035,4174.743652,4270.384766,4227.307617,4535.128418,4347.94873,3909.102539,4422.563965,0,2,44,,,,0,4,0,2,0,0,0,4,4,0,0,4,0,0,4,0,,,,,,,,,,,,,,,,,,,,,,,,,,,,,,,,,,,,,,,,,,,,,,,,,,,,,,,,,,,
1782733234,1782733234,111,0,4453.077148,4311.410156,4351.025879,4583.461426,4281.153809,3977.564209,4187.820313,4176.666504,4270.384766,4227.307617,4550.384766,4346.025879,3913.589844,4426.666504,0,2,44,,,,0,4,0,2,0,0,0,4,4,0,0,4,0,0,4,0,,,,,,,,,,,,,,,,,,,,,,,,,,,,,,,,,,,,,,,,,,,,,,,,,,,,,,,,,,,
1782733234,1782733234,112,0,4443.461426,4312.179688,4349.615234,4578.974121,4279.487305,3979.102539,4184.743652,4178.205078,4267.820313,4228.846191,4544.871582,4343.589844,3920.128174,4426.282227,0,2,44,,,,0,4,0,2,0,0,0,4,4,0,0,4,0,0,4,0,,,,,,,,,,,,,,,,,,,,,,,,,,,,,,,,,,,,,,,,,,,,,,,,14,0,0.147876,0.346008,-0.720276,-0.582764,-0.180198,0.941399,-0.268221,-65.335297,-18.619776,-5.51741
1782733234,1782733234,113,0,4430.128418,4313.205078,4346.410156,4577.05127,4279.102539,3975.384521,4192.179688,4181.410156,4264.487305,4231.410156,4520.641113,4342.179688,3925.641113,4420.641113,0,2,44,,,,0,4,0,2,0,0,0,4,4,0,0,4,0,0,4,0,,,,,,,,,,,,,,,,,,,,,,,,,,,,,,,,,,,,,,,,,,,,,,,,,,,,,,,,,,,
1782733234,1782733234,114,0,4417.05127,4313.589844,4343.717773,4575.256348,4280,3967.564209,4204.615234,4187.179688,4263.077148,4233.205078,4492.05127,4342.307617,3927.692383,4411.922852,0,2,44,,,,0,4,0,2,0,0,0,4,4,0,0,4,0,0,4,0,1,0,0,0,1,0,0,0,0,1,0,0,1,0,0,3,,,,,,,,,,,,,,,,,,,,,,,,,,,,,,,,,,,,,,,,,,,
1782733234,1782733234,115,0,4406.153809,4312.820313,4342.436035,4572.05127,4281.410156,3959.230713,4212.563965,4193.589844,4263.846191,4233.205078,4472.692383,4343.077148,3925.512939,4404.230957,0,2,44,,,,0,4,0,2,0,0,0,4,4,0,0,4,0,0,4,0,,,,,,,,,,,,,,,,,,,,,,,,,,,,,,,,,,,,,,,,,,,,,,,,,,,,,,,,,,,
1782733234,1782733234,116,0,4396.666504,4311.794922,4342.179688,4568.333496,4282.307617,3953.974365,4211.153809,4196.153809,4265.512695,4231.538574,4466.282227,4343.461426,3921.794922,4400.897461,0,2,44,,,,0,4,0,2,0,0,0,4,4,0,0,4,0,0,4,0,,,,,,,,,,,,,,,,,,,,,,,,,,,,,,,,,,,,,,,,,,,,,,,,,,,,,,,,,,,
1782733234,1782733234,117,0,4386.922852,4311.538574,4341.410156,4566.282227,4281.666504,3952.692383,4203.077148,4191.538574,4266.794922,4229.358887,4467.820313,4343.205078,3920,4402.563965,0,2,44,,,,0,4,0,2,0,0,0,4,4,0,0,4,0,0,4,0,,,,,,,,,,,,,,,,,,,,,,,,,,,,,,,,,,,,,,,,,,,,,,,,,,,,,,,,,,,
1782733234,1782733234,118,0,4375.384766,4312.563965,4338.846191,4566.794922,4280,3953.461426,4196.666504,4180.769043,4267.307617,4228.333496,4470.384766,4342.307617,3921.666748,4406.025879,0,2,44,,,,0,4,0,2,0,0,0,4,4,0,0,4,0,0,4,0,,,,,,,,,,,,,,,,,,,,,,,,,,,,,,,,,,,,,,,,,,,,,,,,,,,,,,,,,,,
1782733234,1782733234,119,0,4362.692383,4314.102539,4335.256348,4568.974121,4278.461426,3953.589844,4198.077148,4169.615234,4266.794922,4228.461426,4471.538574,4341.153809,3925.128174,4407.563965,0,2,44,,,,0,4,0,2,0,0,0,4,4,0,0,4,0,0,4,0,,,,,,,,,,,,,,,,,,,,,,,,,,,,,,,,,,,,,,,,,,,,,,,,,,,,,,,,,,,
1782733234,1782733234,120,0,4352.179688,4314.871582,4333.077148,4570.384766,4278.461426,3952.05127,4207.05127,4164.358887,4265.128418,4228.974121,4474.743652,4340.256348,3927.820557,4407.05127,0,2,44,,,,0,4,0,2,0,0,0,4,4,0,0,4,0,0,4,0,,,,,,,,,,,,,,,,,,,,,,,,,,,,,,,,,,,,,,,,,,,,,,,,15,0,0.147762,0.345093,-0.719849,-0.583862,-0.187523,0.960444,-0.263338,-65.185104,-18.641132,-5.465669
1782733234,1782733234,121,0,4347.307617,4313.846191,4334.871582,4568.846191,4280.128418,3949.358887,4217.05127,4167.307617,4262.692383,4228.846191,4484.358887,4340.256348,3928.076904,4407.692383,0,2,44,,,,0,4,0,2,0,0,0,4,4,0,0,4,0,0,4,0,,,,,,,,,,,,,,,,,,,,,,,,,,,,,,,,,,,,,,,,,,,,,,,,,,,,,,,,,,,
1782733234,1782733234,122,0,4348.589844,4311.666504,4340.512695,4564.743652,4282.436035,3946.923096,4220.384766,4175.256348,4260.512695,4228.077148,4500.128418,4341.410156,3927.179443,4412.820313,0,2,44,,,,0,4,0,2,0,0,0,4,4,0,0,4,0,0,4,0,,,,,,,,,,,,,,,,,,,,,,,,,,,,,,,,,,,,,,,,,,,,,,,,,,,,,,,,,,,
1782733234,1782733234,123,0,4351.794922,4310,4346.410156,4560.641113,4284.230957,3945.512939,4214.230957,4183.717773,4259.615234,4227.436035,4516.153809,4342.692383,3927.05127,4422.307617,0,2,44,,,,0,4,0,2,0,0,0,4,4,0,0,4,0,0,4,0,,,,,,,,,,,,,,,,,,,,,,,,,,,,,,,,,,,,,,,,,,,,,,,,,,,,,,,,,,,
1782733234,1782733234,124,0,4351.153809,4310.256348,4348.333496,4559.102539,4285.128418,3945.128174,4202.563965,4190.128418,4260.641113,4227.307617,4524.615234,4343.333496,3929.102539,4431.794922,0,2,44,,,,0,4,0,2,0,0,0,4,4,0,0,4,0,0,4,0,,,,,,,,,,,,,,,,,,,,,,,,,,,,,,,,,,,,,,,,,,,,,,,,,,,,,,,,,,,
1782733234,1782733234,125,0,4343.846191,4312.179688,4344.743652,4560.769043,4285.384766,3945.128174,4193.461426,4194.615234,4263.333496,4227.436035,4522.436035,4342.563965,3932.307617,4436.410156,0,2,44,,,,0,4,0,2,0,0,0,4,4,0,0,4,0,0,4,0,,,,,,,,,,,,,,,,,,,,,,,,,,,,,,,,,,,,,,,,,,,,,,,,,,,,,,,,,,,
1782733234,1782733234,126,0,4331.410156,4314.615234,4337.820313,4563.589844,4285.128418,3945.384521,4193.461426,4197.692383,4266.282227,4228.333496,4514.358887,4341.282227,3935.384521,4433.461426,0,2,44,,,,0,4,0,2,0,0,0,4,4,0,0,4,0,0,4,0,,,,,,,,,,,,,,,,,,,,,,,,,,,,,,,,,,,,,,,,,,,,,,,,,,,,,,,,,,,
1782733234,1782733234,127,0,4317.692383,4316.025879,4331.666504,4565.128418,4284.358887,3945.769287,4203.077148,4199.871582,4266.794922,4230.256348,4508.974121,4340.641113,3937.564209,4425.384766,0,2,44,,,,0,4,0,2,0,0,0,4,4,0,0,4,0,0,4,0,,,,,,,,,,,,,,,,,,,,,,,,,,,,,,,,,,,,,,,,,,,,,,,,,,,,,,,,,,,
1782733234,1782733234,128,0,4306.538574,4316.025879,4329.487305,4563.974121,4283.461426,3945.256348,4217.563965,4201.153809,4263.333496,4232.436035,4510.769043,4341.666504,3939.487061,4416.922852,1018,2,44,,,,0,4,0,2,0,0,0,4,4,0,0,4,0,0,4,0,,,,,,,,,,,,,,,,,,,,,,,,,,,,,,,,,,,,,,,,,,,,,,,,16,0,0.147738,0.343628,-0.719116,-0.585632,-0.182639,0.958491,-0.277011,-65.216591,-18.52702,-5.419102
1782733234,1782733234,129,0,4299.871582,4315.128418,4331.922852,4560.641113,4282.692383,3943.076904,4230.128418,4202.563965,4257.94873,4233.717773,4515.512695,4343.717773,3941.666748,4412.436035,0,2,44,,,,0,4,0,2,0,0,0,4,4,0,0,4,0,0,4,0,,,,,,,,,,,,,,,,,,,,,,,,,,,,,,,,,,,,,,,,,,,,,,,,,,,,,,,,,,,
1782733234,1782733234,130,0,4297.563965,4313.974121,4336.282227,4556.410156,4282.436035,3939.358887,4236.153809,4204.743652,4256.153809,4233.589844,4515.641113,4345.256348,3944.102539,4413.461426,2483,2,44,,,,0,4,0,2,0,0,0,4,4,0,0,4,0,0,4,0,,,,,,,,,,,,,,,,,,,,,,,,,,,,,,,,,,,,,,,,,,,,,,,,,,,,,,,,,,,
1782733234,1782733234,131,0,4297.179688,4313.205078,4338.846191,4553.077148,4282.820313,3935.769287,4234.871582,4208.077148,4261.922852,4232.307617,4507.179688,4345,3946.410156,4418.077148,0,2,44,,,,0,4,0,2,0,0,0,4,4,0,0,4,0,0,4,0,,,,,,,,,,,,,,,,,,,,,,,,,,,,,,,,,,,,,,,,,,,,,,,,,,,,,,,,,,,
1782733234,1782733234,132,0,4294.871582,4312.820313,4337.436035,4550.769043,4283.846191,3933.846191,4228.589844,4211.025879,4270.641113,4231.025879,4493.717773,4342.692383,3947.564209,4421.666504,0,2,44,,,,0,4,0,2,0,0,0,4,4,0,0,4,0,0,4,0,,,,,,,,,,,,,,,,,,,,,,,,,,,,,,,,,,,,,,,,,,,,,,,,,,,,,,,,,,,
1782733234,1782733234,133,0,4286.410156,4312.820313,4332.307617,4548.333496,4284.615234,3933.974365,4221.025879,4211.025879,4269.102539,4230.641113,4482.307617,4339.743652,3947.564209,4419.102539,0,2,44,,,,0,4,0,2,0,0,0,4,4,0,0,4,0,0,4,0,,,,,,,,,,,,,,,,,,,,,,,,,,,,,,,,,,,,,,,,,,,,,,,,,,,,,,,,,,,
1782733234,1782733234,134,0,4271.538574,4312.94873,4325.897461,4545.384766,4284.743652,3935.384521,4216.282227,4206.922852,4242.436035,4231.666504,4477.436035,4337.307617,3947.05127,4408.717773,1930,2,44,,,,0,4,0,2,0,0,0,4,4,0,0,4,0,0,4,0,,,,,,,,,,,,,,,,,,,,,,,,,,,,,,,,,,,,,,,,,,,,,,,,,,,,,,,,,,,
1782733234,1782733234,135,0,4254.615234,4312.820313,4320.512695,4541.922852,4283.589844,3936.666748,4216.538574,4200.897461,4186.666504,4232.94873,4479.487305,4336.282227,3947.179443,4393.846191,1898,2,44,,,,0,4,0,2,0,0,0,4,4,0,0,4,0,0,4,0,,,,,,,,,,,,,,,,,,,,,,,,,,,,,,,,,,,,,,,,,,,,,,,,,,,,,,,,,,,
1782733234,1782733234,136,0,4242.563965,4312.05127,4317.692383,4538.846191,4281.410156,3937.179443,4220.384766,4197.692383,4112.820313,4233.205078,4485.769043,4336.282227,3948.461426,4382.436035,0,2,44,,,,0,4,0,2,0,0,0,4,4,0,0,4,0,0,4,0,,,,,,,,,,,,,,,,,,,,,,,,,,,,,,,,,,,,,,,,,,,,,,,,17,0,0.148388,0.342712,-0.718872,-0.586304,-0.188988,0.963863,-0.287267,-65.228264,-18.540983,-5.427192
1782733234,1782733234,137,0,4239.358887,4310.769043,4317.94873,4536.410156,4279.615234,3936.923096,4223.717773,4200.512695,4042.435791,4231.794922,4490.897461,4337.05127,3950.641113,4381.282227,0,2,44,,,,0,4,0,2,0,0,0,4,4,0,0,4,0,0,4,0,,,,,,,,,,,,,,,,,,,,,,,,,,,,,,,,,,,,,,,,,,,,,,,,,,,,,,,,,,,
1782733234,1782733234,138,0,4242.692383,4309.358887,4320.128418,4535,4278.974121,3936.025635,4223.717773,4208.717773,3994.358887,4229.230957,4489.358887,4338.077148,3953.076904,4391.025879,0,2,44,,,,0,4,0,2,0,0,0,4,4,0,0,4,0,0,4,0,,,,,,,,,,,,,,,,,,,,,,,,,,,,,,,,,,,,,,,,,,,,,,,,,,,,,,,,,,,
1782733234,1782733234,139,0,4246.538574,4309.230957,4322.94873,4533.846191,4280.128418,3934.358887,4220.641113,4217.820313,3974.358887,4226.666504,4480.384766,4339.358887,3955,4405.512695,2839,2,44,,,,0,4,0,2,0,0,0,4,4,0,0,4,0,0,4,0,,,,,,,,,,,,,,,,,,,,,,,,,,,,,,,,,,,,,,,,,,,,,,,,,,,,,,,,,,,
1782733234,1782733234,140,0,4245.128418,4311.025879,4324.871582,4532.563965,4281.922852,3932.179443,4216.794922,4223.461426,3974.871826,4225.128418,4471.282227,4340.512695,3956.794922,4416.153809,2842,2,44,,,,0,4,0,2,0,0,0,4,4,0,0,4,0,0,4,0,,,,,,,,,,,,,,,,,,,,,,,,,,,,,,,,,,,,,,,,,,,,,,,,,,,,,,,,,,,
1782733234,1782733234,141,0,4238.333496,4313.717773,4325.512695,4531.153809,4282.94873,3930.256348,4214.487305,4225.512695,3981.153809,4225.897461,4471.666504,4341.410156,3958.846191,4418.205078,0,2,44,,,,0,4,0,2,0,0,0,4,4,0,0,4,0,0,4,0,,,,,,,,,,,,,,,,,,,,,,,,,,,,,,,,,,,,,,,,,,,,,,,,,,,,,,,,,,,
1782733234,1782733234,142,0,4229.871582,4315.512695,4325.512695,4529.871582,4282.179688,3928.974365,4214.615234,4226.538574,3982.564209,4228.846191,4483.846191,4341.282227,3961.410156,4413.717773,0,2,44,,,,0,4,0,2,0,0,0,4,4,0,0,4,0,0,4,0,,,,,,,,,,,,,,,,,,,,,,,,,,,,,,,,,,,,,,,,,,,,,,,,,,,,,,,,,,,
1782733234,1782733234,143,0,4224.743652,4315.384766,4325.512695,4528.461426,4280.384766,3928.718018,4217.05127,4229.230957,3977.05127,4232.563965,4499.230957,4340,3964.358887,4410.128418,2839,2,44,,,,0,4,0,2,0,0,0,4,4,0,0,4,0,0,4,0,,,,,,,,,,,,,,,,,,,,,,,,,,,,,,,,,,,,,,,,,,,,,,,,,,,,,,,,,,,
1782733234,1782733234,144,0,4225.384766,4313.846191,4326.794922,4526.538574,4278.846191,3928.974365,4220.769043,4233.205078,3970,4234.743652,4505,4337.94873,3967.94873,4413.461426,2842,2,44,,,,0,4,0,2,0,0,0,4,4,0,0,4,0,0,4,0,,,,,,,,,,,,,,,,,,,,,,,,,,,,,,,,,,,,,,,,,,,,,,,,18,0,0.148983,0.342896,-0.718811,-0.586121,-0.195825,0.961909,-0.295568,-65.25544,-18.270218,-5.417806
1782733234,1782733234,145,0,4230.128418,4312.179688,4329.102539,4524.102539,4278.461426,3929.102539,4225.256348,4236.025879,3967.564209,4234.487305,4495.897461,4335.769043,3972.564209,4423.461426,0,2,44,,,,0,4,0,2,0,0,0,4,4,0,0,4,0,0,4,0,,,,,,,,,,,,,,,,,,,,,,,,,,,,,,,,,,,,,,,,,,,,,,,,,,,,,,,,,,,
1782733234,1782733234,146,0,4234.871582,4311.794922,4331.410156,4521.794922,4279.743652,3929.102539,4229.615234,4235.384766,3970.641113,4232.820313,4478.461426,4334.358887,3978.461426,4433.717773,0,2,44,,,,0,4,0,2,0,0,0,4,4,0,0,4,0,0,4,0,,,,,,,,,,,,,,,,,,,,,,,,,,,,,,,,,,,,,,,,,,,,,,,,,,,,,,,,,,,
1782733234,1782733234,147,0,4236.666504,4312.563965,4332.820313,4520.128418,4282.05127,3929.358887,4232.94873,4231.410156,3975.512939,4230.897461,4464.743652,4333.461426,3985,4436.794922,2839,2,44,,,,0,4,0,2,0,0,0,4,4,0,0,4,0,0,4,0,,,,,,,,,,,,,,,,,,,,,,,,,,,,,,,,,,,,,,,,,,,,,,,,,,,,,,,,,,,
1782733234,1782733234,148,0,4235.512695,4313.846191,4332.563965,4519.102539,4283.974121,3930.256348,4235.128418,4226.538574,3978.333252,4230.128418,4463.077148,4332.179688,3991.281982,4430.897461,2842,2,44,,,,0,4,0,2,0,0,0,4,4,0,0,4,0,0,4,0,,,,,,,,,,,,,,,,,,,,,,,,,,,,,,,,,,,,,,,,,,,,,,,,,,,,,,,,,,,
1782733234,1782733234,149,0,4233.717773,4314.358887,4331.025879,4518.589844,4284.230957,3931.281982,4236.025879,4224.102539,3978.589844,4230.769043,4473.717773,4329.871582,3996.153809,4420.897461,0,2,44,,,,0,4,0,2,0,0,0,4,4,0,0,4,0,0,4,0,,,,,,,,,,,,,,,,,,,,,,,,,,,,,,,,,,,,,,,,,,,,,,,,,,,,,,,,,,,
1782733234,1782733234,150,0,4233.333496,4313.717773,4328.974121,4518.333496,4282.820313,3931.666748,4235.769043,4226.282227,3978.718018,4232.307617,4491.025879,4327.05127,3999.743652,4414.102539,0,2,44,,,,0,4,0,2,0,0,0,4,4,0,0,4,0,0,4,0,,,,,,,,,,,,,,,,,,,,,,,,,,,,,,,,,,,,,,,,,,,,,,,,,,,,,,,,,,,
1782733234,1782733234,151,0,4234.487305,4312.692383,4327.563965,4518.077148,4280.769043,3930.769287,4234.487305,4233.333496,3980.897461,4233.589844,4507.179688,4324.871582,4002.05127,4415.384766,2839,2,44,,,,0,4,0,2,0,0,0,4,4,0,0,4,0,0,4,0,,,,,,,,,,,,,,,,,,,,,,,,,,,,,,,,,,,,,,,,,,,,,,,,,,,,,,,,,,,
1782733234,1782733234,152,0,4235.897461,4312.436035,4327.820313,4517.563965,4279.487305,3928.846191,4233.077148,4242.436035,3984.487061,4233.461426,4516.794922,4324.230957,4003.076904,4423.205078,2842,2,44,,,,0,4,0,2,0,0,0,4,4,0,0,4,0,0,4,0,,,,,,,,,,,,,,,,,,,,,,,,,,,,,,,,,,,,,,,,,,,,,,,,19,0,0.149882,0.343872,-0.718506,-0.585693,-0.159687,0.937492,-0.264315,-65.279892,-18.443197,-5.459359
1782733234,1782733234,153,0,4236.410156,4313.077148,4329.487305,4516.153809,4279.230957,3927.179443,4234.102539,4249.871582,3987.564209,4231.538574,4519.615234,4324.487305,4003.205078,4431.538574,0,2,44,,,,0,4,0,2,0,0,0,4,4,0,0,4,0,0,4,0,,,,,,,,,,,,,,,,,,,,,,,,,,,,,,,,,,,,,,,,,,,,,,,,,,,,,,,,,,,
1782733234,1782733234,154,0,4235.897461,4313.974121,4330.641113,4514.102539,4279.358887,3926.666748,4240.512695,4252.05127,3988.461426,4228.974121,4520.512695,4324.615234,4002.692383,4433.974121,0,2,44,,,,0,4,0,2,0,0,0,4,4,0,0,4,0,0,4,0,,,,,,,,,,,,,,,,,,,,,,,,,,,,,,,,,,,,,,,,,,,,,,,,,,,,,,,,,,,
1782733234,1782733234,155,0,4234.487305,4313.589844,4329.230957,4512.05127,4279.358887,3927.820557,4252.05127,4247.436035,3986.923096,4226.538574,4523.717773,4323.974121,4002.307617,4428.333496,2839,2,44,,,,0,4,0,2,0,0,0,4,4,0,0,4,0,0,4,0,,,,,,,,,,,,,,,,,,,,,,,,,,,,,,,,,,,,,,,,,,,,,,,,,,,,,,,,,,,
1782733234,1782733234,156,0,4232.563965,4311.922852,4325.256348,4510.641113,4279.358887,3929.615479,4263.077148,4238.333496,3983.718018,4225.384766,4527.05127,4323.333496,4002.692383,4418.205078,2842,2,44,,,,0,4,0,2,0,0,0,4,4,0,0,4,0,0,4,0,,,,,,,,,,,,,,,,,,,,,,,,,,,,,,,,,,,,,,,,,,,,,,,,,,,,,,,,,,,
1782733234,1782733234,157,0,4230.256348,4309.871582,4321.410156,4509.871582,4279.102539,3930.769287,4266.794922,4228.974121,3980.256348,4226.282227,4522.307617,4323.974121,4003.974365,4409.487305,0,2,44,,,,0,4,0,2,0,0,0,4,4,0,0,4,0,0,4,0,,,,,,,,,,,,,,,,,,,,,,,,,,,,,,,,,,,,,,,,,,,,,,,,,,,,,,,,,,,
1782733234,1782733234,158,0,4228.589844,4309.230957,4320.512695,4509.487305,4278.846191,3930.897461,4260.641113,4223.846191,3978.076904,4229.102539,4505,4326.282227,4005.256348,4407.436035,0,2,44,,,,0,4,0,2,0,0,0,4,4,0,0,4,0,0,4,0,,,,,,,,,,,,,,,,,,,,,,,,,,,,,,,,,,,,,,,,,,,,,,,,,,,,,,,,,,,
1782733234,1782733234,159,0,4228.589844,4310.128418,4324.102539,4509.615234,4278.333496,3930.128174,4249.230957,4225.897461,3977.179443,4232.563965,4482.05127,4329.102539,4005.384521,4412.820313,2839,2,44,,,,0,4,0,2,0,0,0,4,4,0,0,4,0,0,4,0,,,,,,,,,,,,,,,,,,,,,,,,,,,,,,,,,,,,,,,,,,,,,,,,,,,,,,,,,,,
1782733234,1782733234,160,0,4230.897461,4311.922852,4330.769043,4510.128418,4278.333496,3929.871826,4241.282227,4234.230957,3977.05127,4234.230957,4467.94873,4331.025879,4002.820557,4422.563965,2842,2,44,,,,0,4,0,2,0,0,0,4,4,0,0,4,0,0,4,0,,,,,,,,,,,,,,,,,,,,,,,,,,,,,,,,,,,,,,,,,,,,,,,,20,0,0.15058,0.344482,-0.718018,-0.585754,-0.173361,0.951654,-0.275546,-65.401909,-18.548878,-5.313423
1782733234,1782733234,161,0,4234.102539,4313.461426,4337.307617,4510.897461,4278.974121,3931.666748,4243.461426,4244.615234,3976.281982,4233.461426,4471.538574,4331.410156,3997.435791,4431.025879,0,2,44,,,,0,4,0,2,0,0,0,4,4,0,0,4,0,0,4,0,,,,,,,,,,,,,,,,,,,,,,,,,,,,,,,,,,,,,,,,,,,,,,,,,,,,,,,,,,,
1782733234,1782733234,162,0,4235.897461,4313.205078,4340.384766,4511.282227,4279.230957,3935.641113,4254.743652,4251.538574,3974.487061,4231.282227,4487.307617,4331.153809,3990.769287,4433.717773,0,2,44,,,,0,4,0,2,0,0,0,4,4,0,0,4,0,0,4,0,,,,,,,,,,,,,,,,,,,,,,,,,,,,,,,,,,,,,,,,,,,,,,,,,,,,,,,,,,,
1782733234,1782733234,163,0,4234.487305,4311.666504,4338.974121,4510.512695,4277.692383,3940.512939,4267.307617,4251.666504,3972.179443,4229.871582,4500.769043,4331.410156,3984.871826,4430.128418,2839,2,44,,,,0,4,0,2,0,0,0,4,4,0,0,4,0,0,4,0,,,,,,,,,,,,,,,,,,,,,,,,,,,,,,,,,,,,,,,,,,,,,,,,,,,,,,,,,,,
1782733234,1782733234,164,0,4230.384766,4309.743652,4334.102539,4508.589844,4275,3944.230713,4272.563965,4245.641113,3970.512939,4230.128418,4501.922852,4332.307617,3981.538574,4423.077148,2842,2,44,,,,0,4,0,2,0,0,0,4,4,0,0,4,0,0,4,0,,,,,,,,,,,,,,,,,,,,,,,,,,,,,,,,,,,,,,,,,,,,,,,,,,,,,,,,,,,
1782733234,1782733234,165,0,4225,4308.974121,4328.717773,4506.025879,4272.563965,3945.256348,4267.692383,4237.94873,3969.871826,4231.538574,4493.205078,4333.333496,3981.666748,4416.282227,0,2,44,,,,0,4,0,2,0,0,0,4,4,0,0,4,0,0,4,0,,,,,,,,,,,,,,,,,,,,,,,,,,,,,,,,,,,,,,,,,,,,,,,,,,,,,,,,,,,
1782733234,1782733234,166,0,4219.743652,4309.871582,4324.871582,4503.333496,4272.05127,3943.718018,4258.205078,4232.94873,3970.128174,4232.94873,4484.615234,4333.717773,3984.358887,4411.794922,0,2,44,,,,0,4,0,2,0,0,0,4,4,0,0,4,0,0,4,0,,,,,,,,,,,,,,,,,,,,,,,,,,,,,,,,,,,,,,,,,,,,,,,,,,,,,,,,,,,
1782733234,1782733234,167,0,4214.487305,4311.666504,4323.846191,4501.025879,4273.846191,3940.769287,4252.692383,4233.333496,3970.769287,4233.205078,4483.333496,4332.820313,3987.692383,4409.358887,2839,2,44,,,,0,4,0,2,0,0,0,4,4,0,0,4,0,0,4,0,,,,,,,,,,,,,,,,,,,,,,,,,,,,,,,,,,,,,,,,,,,,,,,,,,,,,,,,,,,
1782733234,1782733234,168,0,4208.717773,4313.205078,4324.615234,4499.230957,4276.410156,3938.333252,4256.410156,4238.974121,3971.794922,4232.563965,4489.230957,4331.410156,3989.743652,4407.820313,2842,2,44,,,,0,4,0,2,0,0,0,4,4,0,0,4,0,0,4,0,,,,,,,,,,,,,,,,,,,,,,,,,,,,,,,,,,,,,,,,,,,,,,,,21,0,0.15243,0.345276,-0.716797,-0.586304,-0.170919,0.946771,-0.264315,-65.37838,-18.49399,-5.482081
1782733234,1782733234,169,0,4202.563965,4313.077148,4325.641113,4498.333496,4277.436035,3937.564209,4266.410156,4247.436035,3973.333252,4231.794922,4496.922852,4330.769043,3989.743652,4407.692383,0,2,44,,,,0,4,0,2,0,0,0,4,4,0,0,4,0,0,4,0,,,,,,,,,,,,,,,,,,,,,,,,,,,,,,,,,,,,,,,,,,,,,,,,,,,,,,,,,,,
1782733234,1782733234,170,0,4197.179688,4311.410156,4325.641113,4498.461426,4276.410156,3938.333252,4275.512695,4255.384766,3975.256348,4231.282227,4500.897461,4331.538574,3988.589844,4410.384766,0,2,44,,,,0,4,0,2,0,0,0,4,4,0,0,4,0,0,4,0,,,,,,,,,,,,,,,,,,,,,,,,,,,,,,,,,,,,,,,,,,,,,,,,,,,,,,,,,,,
1782733234,1782733234,171,0,4194.230957,4309.487305,4325.256348,4499.358887,4274.358887,3939.487061,4278.205078,4260.641113,3976.410156,4230.769043,4498.974121,4333.461426,3987.94873,4417.05127,2839,2,44,,,,0,4,0,2,0,0,0,4,4,0,0,4,0,0,4,0,,,,,,,,,,,,,,,,,,,,,,,,,,,,,,,,,,,,,,,,,,,,,,,,,,,,,,,,,,,
1782733234,1782733234,172,0,4194.743652,4308.461426,4325.897461,4500,4273.333496,3939.871826,4274.743652,4262.692383,3976.153809,4230.897461,4493.717773,4335.128418,3988.974365,4426.922852,2842,2,44,,,,0,4,0,2,0,0,0,4,4,0,0,4,0,0,4,0,,,,,,,,,,,,,,,,,,,,,,,,,,,,,,,,,,,,,,,,,,,,,,,,,,,,,,,,,,,
1782733234,1782733234,173,0,4197.820313,4308.846191,4328.589844,4499.871582,4274.487305,3939.358887,4268.461426,4262.94873,3975.128174,4231.922852,4489.743652,4335.641113,3991.794922,4436.922852,0,2,44,,,,0,4,0,2,0,0,0,4,4,0,0,4,0,0,4,0,,,,,,,,,,,,,,,,,,,,,,,,,,,,,,,,,,,,,,,,,,,,,,,,,,,,,,,,,,,
1782733234,1782733234,174,0,4200.897461,4309.487305,4332.436035,4499.230957,4277.307617,3938.846191,4263.461426,4262.820313,3974.358887,4233.846191,4488.974121,4334.743652,3994.871826,4444.102539,0,2,44,,,,0,4,0,2,0,0,0,4,4,0,0,4,0,0,4,0,,,,,,,,,,,,,,,,,,,,,,,,,,,,,,,,,,,,,,,,,,,,,,,,,,,,,,,,,,,
1782733234,1782733234,175,0,4201.282227,4309.743652,4335.769043,4497.820313,4280,3939.487061,4261.410156,4262.307617,3974.743652,4235.897461,4488.717773,4333.333496,3996.410156,4447.436035,2839,2,44,,,,0,4,0,2,0,0,0,4,4,0,0,4,0,0,4,0,,,,,,,,,,,,,,,,,,,,,,,,,,,,,,,,,,,,,,,,,,,,,,,,,,,,,,,,,,,
1782733234,1782733234,176,0,4198.846191,4309.358887,4337.692383,4496.025879,4281.282227,3941.923096,4262.563965,4260.897461,3976.025635,4236.794922,4485.641113,4332.307617,3995.769287,4448.461426,2842,2,44,,,,0,4,0,2,0,0,0,4,4,0,0,4,0,0,4,0,,,,,,,,,,,,,,,,,,,,,,,,,,,,,,,,,,,,,,,,,,,,,,,,22,0,0.153488,0.34552,-0.716003,-0.586853,-0.190941,0.942376,-0.267733,-65.340546,-18.627924,-5.283873
1782733234,1782733234,177,0,4195.897461,4309.102539,4338.589844,4493.974121,4280.384766,3945.769287,4265.897461,4258.717773,3977.820557,4236.025879,4481.794922,4332.436035,3993.974365,4450,0,2,44,,,,0,4,0,2,0,0,0,4,4,0,0,4,0,0,4,0,,,,,,,,,,,,,,,,,,,,,,,,,,,,,,,,,,,,,,,,,,,,,,,,,,,,,,,,,,,
1782733234,1782733234,178,0,4195.641113,4309.230957,4339.871582,4492.692383,4278.589844,3950.128174,4269.743652,4258.077148,3978.974365,4233.717773,4484.871582,4333.333496,3992.435791,4454.358887,0,2,44,,,,0,4,0,2,0,0,0,4,4,0,0,4,0,0,4,0,,,,,,,,,,,,,,,,,,,,,,,,,,,,,,,,,,,,,,,,,,,,,,,,,,,,,,,,,,,
1782733234,1782733234,179,0,4198.846191,4309.230957,4341.922852,4492.563965,4277.563965,3953.589844,4272.05127,4260.256348,3979.102539,4231.538574,4499.871582,4334.230957,3992.692383,4461.025879,2839,2,44,,,,0,4,0,2,0,0,0,4,4,0,0,4,0,0,4,0,,,,,,,,,,,,,,,,,,,,,,,,,,,,,,,,,,,,,,,,,,,,,,,,,,,,,,,,,,,
1782733234,1782733234,180,0,4202.820313,4309.102539,4343.974121,4493.205078,4278.974121,3955.897461,4271.025879,4265,3978.589844,4231.153809,4520.512695,4334.871582,3995.128174,4467.05127,2842,2,44,,,,0,4,0,2,0,0,0,4,4,0,0,4,0,0,4,0,,,,,,,,,,,,,,,,,,,,,,,,,,,,,,,,,,,,,,,,,,,,,,,,,,,,,,,,,,,
1782733234,1782733234,181,0,4204.102539,4309.102539,4344.615234,4493.846191,4282.563965,3957.820557,4267.179688,4270.256348,3978.333252,4233.589844,4532.94873,4335.384766,3998.718018,4468.846191,0,2,44,,,,0,4,0,2,0,0,0,4,4,0,0,4,0,0,4,0,,,,,,,,,,,,,,,,,,,,,,,,,,,,,,,,,,,,,,,,,,,,,,,,,,,,,,,,,,,
1782733234,1782733234,182,0,4201.410156,4309.487305,4343.461426,4493.717773,4286.282227,3959.871826,4262.563965,4274.615234,3979.230713,4237.94873,4529.230957,4336.153809,4001.666748,4465.128418,0,2,44,,,,0,4,0,2,0,0,0,4,4,0,0,4,0,0,4,0,,,,,,,,,,,,,,,,,,,,,,,,,,,,,,,,,,,,,,,,,,,,,,,,,,,,,,,,,,,
1782733234,1782733234,183,0,4197.436035,4309.743652,4341.794922,4493.205078,4287.94873,3962.05127,4259.871582,4277.307617,3981.794922,4242.05127,4514.743652,4337.307617,4002.94873,4458.461426,2839,2,44,,,,0,4,0,2,0,0,0,4,4,0,0,4,0,0,4,0,,,,,,,,,,,,,,,,,,,,,,,,,,,,,,,,,,,,,,,,,,,,,,,,,,,,,,,,,,,
1782733234,1782733234,184,0,4196.666504,4309.358887,4341.922852,4492.692383,4287.436035,3964.230713,4260.641113,4277.436035,3985.384521,4243.333496,4500.384766,4338.589844,4002.820557,4451.538574,2842,2,44,,,,0,4,0,2,0,0,0,4,4,0,0,4,0,0,4,0,,,,,,,,,,,,,,,,,,,,,,,,,,,,,,,,,,,,,,,,,,,,,,,,23,0,0.154824,0.345886,-0.715088,-0.587402,-0.179221,0.947748,-0.252106,-65.323158,-18.681799,-5.255486
1782733234,1782733234,185,0,4201.794922,4308.589844,4345.769043,4492.820313,4285.769043,3966.538574,4264.487305,4273.077148,3988.846191,4241.538574,4490.769043,4339.102539,4002.435791,4445.128418,0,2,44,,,,0,4,0,2,0,0,0,4,4,0,0,4,0,0,4,0,,,,,,,,,,,,,,,,,,,,,,,,,,,,,,,,,,,,,,,,,,,,,,,,,,,,,,,,,,,
1782733234,1782733234,186,0,4211.922852,4308.077148,4352.692383,4493.846191,4284.743652,3969.358887,4268.717773,4263.589844,3990.897461,4238.205078,4481.025879,4338.717773,4002.435791,4438.077148,0,2,44,,,,0,4,0,2,0,0,0,4,4,0,0,4,0,0,4,0,,,,,,,,,,,,,,,,,,,,,,,,,,,,,,,,,,,,,,,,,,,,,,,,,,,,,,,,,,,
1782733234,1782733234,187,0,4222.94873,4308.461426,4359.871582,4495.256348,4284.743652,3972.564209,4270.128418,4252.05127,3991.410156,4235,4464.743652,4337.820313,4003.076904,4429.230957,2839,2,44,,,,0,4,0,2,0,0,0,4,4,0,0,4,0,0,4,0,,,,,,,,,,,,,,,,,,,,,,,,,,,,,,,,,,,,,,,,,,,,,,,,,,,,,,,,,,,
1782733234,1782733234,188,0,4231.282227,4310,4363.974121,4496.025879,4285.641113,3975.769287,4266.666504,4244.487305,3990.769287,4232.563965,4443.974121,4337.563965,4004.487061,4420.769043,2842,2,44,,,,0,4,0,2,0,0,0,4,4,0,0,4,0,0,4,0,,,,,,,,,,,,,,,,,,,,,,,,,,,,,,,,,,,,,,,,,,,,,,,,,,,,,,,,,,,
1782733234,1782733234,189,0,4235.512695,4311.922852,4364.102539,4495,4286.282227,3978.205078,4259.871582,4244.743652,3990,4231.025879,4429.358887,4338.589844,4006.794922,4416.025879,0,2,44,,,,0,4,0,2,0,0,0,4,4,0,0,4,0,0,4,0,,,,,,,,,,,,,,,,,,,,,,,,,,,,,,,,,,,,,,,,,,,,,,,,,,,,,,,,,,,
1782733234,1782733234,190,0,4236.794922,4313.333496,4361.922852,4492.307617,4286.025879,3980,4254.871582,4252.307617,3990.384521,4231.282227,4431.282227,4340.384766,4010.897461,4416.922852,0,2,44,,,,0,4,0,2,0,0,0,4,4,0,0,4,0,0,4,0,,,,,,,,,,,,,,,,,,,,,,,,,,,,,,,,,,,,,,,,,,,,,,,,,,,,,,,,,,,
1782733234,1782733234,191,0,4236.538574,4313.589844,4360.256348,4488.846191,4285,3981.794922,4256.666504,4261.922852,3992.692383,4234.102539,4450.256348,4341.794922,4016.410156,4421.922852,2839,2,44,,,,0,4,0,2,0,0,0,4,4,0,0,4,0,0,4,0,,,,,,,,,,,,,,,,,,,,,,,,,,,,,,,,,,,,,,,,,,,,,,,,,,,,,,,,,,,
1782733234,1782733234,192,0,4234.615234,4313.205078,4360.769043,4485.897461,4283.846191,3984.871826,4266.410156,4267.179688,3996.538574,4238.589844,4476.282227,4341.922852,4022.435791,4426.666504,2842,2,44,,,,0,4,0,2,0,0,0,4,4,0,0,4,0,0,4,0,,,,,,,,,,,,,,,,,,,,,,,,,,,,,,,,,,,,,,,,,,,,,,,,24,0,0.157147,0.346619,-0.713623,-0.588135,-0.170919,0.937004,-0.244293,-65.30751,-18.646952,-5.146604
1782733234,1782733234,193,0,4230.256348,4312.820313,4362.05127,4484.102539,4283.333496,3989.230713,4278.974121,4265.512695,4001.025635,4242.05127,4494.743652,4341.410156,4027.307617,4427.05127,0,2,44,,,,0,4,0,2,0,0,0,4,4,0,0,4,0,0,4,0,,,,,,,,,,,,,,,,,,,,,,,,,,,,,,,,,,,,,,,,,,,,,,,,,,,,,,,,,,,
1782733234,1782733234,194,0,4222.94873,4312.692383,4361.666504,4483.205078,4283.717773,3993.076904,4286.666504,4260.128418,4005.128174,4241.794922,4497.307617,4341.282227,4029.871826,4421.282227,0,2,44,,,,0,4,0,2,0,0,0,4,4,0,0,4,0,0,4,0,,,,,,,,,,,,,,,,,,,,,,,,,,,,,,,,,,,,,,,,,,,,,,,,,,,,,,,,,,,
1782733234,1782733234,195,0,4215.256348,4312.563965,4358.461426,4482.820313,4284.487305,3994.871826,4285.512695,4257.820313,4008.076904,4238.589844,4485.897461,4342.179688,4030,4411.794922,2839,2,44,,,,0,4,0,2,0,0,0,4,4,0,0,4,0,0,4,0,,,,,,,,,,,,,,,,,,,,,,,,,,,,,,,,,,,,,,,,,,,,,,,,,,,,,,,,,,,
1782733234,1782733234,196,0,4211.153809,4312.179688,4354.230957,4482.692383,4285.128418,3994.102539,4277.436035,4263.205078,4010.512939,4235.897461,4470,4344.102539,4028.846191,4404.358887,2842,2,44,,,,0,4,0,2,0,0,0,4,4,0,0,4,0,0,4,0,,,,,,,,,,,,,,,,,,,,,,,,,,,,,,,,,,,,,,,,,,,,,,,,,,,,,,,,,,,
1782733234,1782733234,197,0,4212.692383,4311.666504,4351.538574,4482.820313,4285,3992.179443,4268.846191,4275.128418,4013.589844,4236.153809,4457.436035,4346.025879,4028.205078,4404.102539,0,2,44,,,,0,4,0,2,0,0,0,4,4,0,0,4,0,0,4,0,,,,,,,,,,,,,,,,,,,,,,,,,,,,,,,,,,,,,,,,,,,,,,,,,,,,,,,,,,,
1782733234,1782733234,198,0,4217.436035,4311.153809,4351.153809,4483.077148,4284.487305,3991.538574,4265.384766,4286.282227,4017.94873,4239.230957,4449.487305,4347.436035,4028.461426,4411.666504,0,2,44,,,,0,4,0,2,0,0,0,4,4,0,0,4,0,0,4,0,,,,,,,,,,,,,,,,,,,,,,,,,,,,,,,,,,,,,,,,,,,,,,,,,,,,,,,,,,,
1782733234,1782733234,199,0,4219.615234,4310.641113,4351.922852,4482.820313,4284.487305,3993.589844,4268.461426,4288.846191,4022.820557,4242.307617,4443.205078,4348.077148,4030,4422.307617,2839,2,44,,,,0,4,0,2,0,0,0,4,4,0,0,4,0,0,4,0,,,,,,,,,,,,,,,,,,,,,,,,,,,,,,,,,,,,,,,,,,,,,,,,,,,,,,,,,,,
1782733234,1782733234,200,0,4215.512695,4309.615234,4351.282227,4481.282227,4285,3997.820557,4275.256348,4281.025879,4026.666748,4243.461426,4437.94873,4348.333496,4032.435791,4429.615234,2842,2,44,,,,0,4,0,2,0,0,0,4,4,0,0,4,0,0,4,0,,,,,,,,,,,,,,,,,,,,,,,,,,,,,,,,,,,,,,,,,,,,,,,,25,0,0.15774,0.346924,-0.712891,-0.588684,-0.184593,0.964351,-0.242827,-65.293427,-18.532257,-4.965277
1782733234,1782733234,201,0,4206.666504,4307.820313,4347.94873,4478.589844,4286.025879,4002.179443,4281.410156,4269.487305,4027.820557,4242.692383,4438.846191,4347.94873,4035.128174,4430.512695,0,2,44,,,,0,4,0,2,0,0,0,4,4,0,0,4,0,0,4,0,,,,,,,,,,,,,,,,,,,,,,,,,,,,,,,,,,,,,,,,,,,,,,,,,,,,,,,,,,,
1782733234,1782733234,202,0,4198.333496,4304.871582,4343.461426,4475.641113,4286.794922,4004.102539,4284.230957,4264.230957,4026.153809,4242.05127,4450.512695,4346.666504,4037.307617,4427.05127,0,2,44,,,,0,4,0,2,0,0,0,4,4,0,0,4,0,0,4,0,,,,,,,,,,,,,,,,,,,,,,,,,,,,,,,,,,,,,,,,,,,,,,,,,,,,,,,,,,,
1782733234,1782733234,203,0,4194.871582,4302.05127,4340.512695,4473.589844,4286.794922,4002.94873,4283.205078,4269.358887,4022.692383,4243.077148,4470.641113,4344.615234,4038.461426,4423.589844,2839,2,44,,,,0,4,0,2,0,0,0,4,4,0,0,4,0,0,4,0,,,,,,,,,,,,,,,,,,,,,,,,,,,,,,,,,,,,,,,,,,,,,,,,,,,,,,,,,,,
1782733234,1782733234,204,0,4196.410156,4301.025879,4340.769043,4472.94873,4286.025879,4000,4280.256348,4280.512695,4019.358887,4245.128418,4489.615234,4342.436035,4038.589844,4422.563965,2842,2,44,,,,0,4,0,2,0,0,0,4,4,0,0,4,0,0,4,0,,,,,,,,,,,,,,,,,,,,,,,,,,,,,,,,,,,,,,,,,,,,,,,,,,,,,,,,,,,
1782733234,1782733234,205,0,4199.358887,4302.820313,4342.820313,4473.077148,4285.256348,3997.820557,4276.666504,4288.589844,4017.564209,4246.794922,4498.461426,4341.025879,4037.692383,4423.589844,0,2,44,,,,0,4,0,2,0,0,0,4,4,0,0,4,0,0,4,0,,,,,,,,,,,,,,,,,,,,,,,,,,,,,,,,,,,,,,,,,,,,,,,,,,,,,,,,,,,
1782733234,1782733234,206,0,4198.846191,4306.153809,4343.974121,4472.820313,4284.743652,3997.692383,4272.692383,4287.307617,4017.820557,4247.05127,4494.743652,4340.769043,4036.410156,4425.256348,0,2,44,,,,0,4,0,2,0,0,0,4,4,0,0,4,0,0,4,0,,,,,,,,,,,,,,,,,,,,,,,,,,,,,,,,,,,,,,,,,,,,,,,,,,,,,,,,,,,
1782733234,1782733234,207,0,4193.333496,4308.333496,4341.666504,4470.897461,4284.871582,3999.871826,4268.846191,4277.563965,4019.358887,4245.897461,4482.692383,4341.153809,4036.153809,4427.307617,2839,2,44,,,,0,4,0,2,0,0,0,4,4,0,0,4,0,0,4,0,,,,,,,,,,,,,,,,,,,,,,,,,,,,,,,,,,,,,,,,,,,,,,,,,,,,,,,,,,,
1782733234,1782733234,208,0,4185.384766,4307.94873,4336.410156,4467.692383,4285.641113,4003.461426,4267.179688,4265.512695,4020.512939,4243.974121,4468.846191,4341.025879,4037.435791,4430.641113,2842,2,44,,,,0,4,0,2,0,0,0,4,4,0,0,4,0,0,4,0,,,,,,,,,,,,,,,,,,,,,,,,,,,,,,,,,,,,,,,,,,,,,,,,26,0,0.158864,0.347961,-0.711731,-0.589172,-0.181174,0.964839,-0.249664,-65.214081,-18.362364,-5.152082
1782733234,1782733234,209,0,4179.871582,4306.282227,4331.538574,4464.615234,4286.794922,4006.923096,4270.256348,4258.205078,4020.256348,4242.692383,4458.461426,4340,4039.615479,4434.743652,0,2,44,,,,0,4,0,2,0,0,0,4,4,0,0,4,0,0,4,0,,,,,,,,,,,,,,,,,,,,,,,,,,,,,,,,,,,,,,,,,,,,,,,,,,,,,,,,,,,
1782733234,1782733234,210,0,4179.871582,4304.871582,4330.256348,4463.461426,4287.820313,4008.974365,4278.846191,4258.846191,4019.102539,4242.692383,4454.871582,4338.717773,4040.897461,4437.692383,0,2,44,,,,0,4,0,2,0,0,0,4,4,0,0,4,0,0,4,0,,,,,,,,,,,,,,,,,,,,,,,,,,,,,,,,,,,,,,,,,,,,,,,,,,,,,,,,,,,
1782733234,1782733234,211,0,4184.102539,4304.230957,4332.94873,4464.358887,4287.820313,4008.589844,4289.743652,4265.769043,4017.94873,4243.205078,4459.230957,4338.461426,4039.487061,4437.94873,2839,2,44,,,,0,4,0,2,0,0,0,4,4,0,0,4,0,0,4,0,,,,,,,,,,,,,,,,,,,,,,,,,,,,,,,,,,,,,,,,,,,,,,,,,,,,,,,,,,,
1782733234,1782733234,212,0,4187.94873,4303.717773,4336.666504,4465.769043,4286.410156,4006.281982,4297.563965,4274.615234,4017.435791,4243.205078,4470.769043,4339.487305,4036.281982,4435.256348,2842,2,44,,,,0,4,0,2,0,0,0,4,4,0,0,4,0,0,4,0,,,,,,,,,,,,,,,,,,,,,,,,,,,,,,,,,,,,,,,,,,,,,,,,,,,,,,,,,,,
1782733234,1782733234,213,0,4186.794922,4302.692383,4337.692383,4466.538574,4284.358887,4003.205078,4298.717773,4280.641113,4018.076904,4242.563965,4485.769043,4340.769043,4033.461426,4431.666504,0,2,44,,,,0,4,0,2,0,0,0,4,4,0,0,4,0,0,4,0,,,,,,,,,,,,,,,,,,,,,,,,,,,,,,,,,,,,,,,,,,,,,,,,,,,,,,,,,,,
1782733234,1782733234,214,0,4179.743652,4301.794922,4334.743652,4466.153809,4282.820313,4001.410156,4293.717773,4281.794922,4019.487061,4242.307617,4497.692383,4340.897461,4033.589844,4429.615234,0,2,44,,,,0,4,0,2,0,0,0,4,4,0,0,4,0,0,4,0,,,,,,,,,,,,,,,,,,,,,,,,,,,,,,,,,,,,,,,,,,,,,,,,,,,,,,,,,,,
1782733234,1782733234,215,0,4170.769043,4301.794922,4330,4464.615234,4282.820313,4001.666748,4286.666504,4279.615234,4020.897461,4243.461426,4499.615234,4339.102539,4036.794922,4431.282227,2839,2,44,,,,0,4,0,2,0,0,0,4,4,0,0,4,0,0,4,0,,,,,,,,,,,,,,,,,,,,,,,,,,,,,,,,,,,,,,,,,,,,,,,,,,,,,,,,,,,
1782733234,1782733234,216,0,4166.025879,4303.205078,4326.922852,4462.436035,4283.846191,4003.076904,4281.282227,4276.794922,4021.281982,4245.256348,4490.128418,4336.410156,4041.153809,4436.922852,2842,2,44,,,,0,4,0,2,0,0,0,4,4,0,0,4,0,0,4,0,,,,,,,,,,,,,,,,,,,,,,,,,,,,,,,,,,,,,,,,,,,,,,,,27,0,0.159707,0.348328,-0.71106,-0.589539,-0.170919,0.959956,-0.243316,-65.209343,-18.442795,-5.220207
1782733234,1782733234,217,0,4168.846191,4305.128418,4327.563965,4459.487305,4285.128418,4004.230713,4278.974121,4275.128418,4020.512939,4246.538574,4476.666504,4335.128418,4044.102539,4444.230957,0,2,44,,,,0,4,0,2,0,0,0,4,4,0,0,4,0,0,4,0,,,,,,,,,,,,,,,,,,,,,,,,,,,,,,,,,,,,,,,,,,,,,,,,,,,,,,,,,,,
1782733234,1782733234,218,0,4178.077148,4305.897461,4331.025879,4456.666504,4285.512695,4004.102539,4279.230957,4275.128418,4019.358887,4246.666504,4470.512695,4336.666504,4044.358887,4449.102539,0,2,44,,,,0,4,0,2,0,0,0,4,4,0,0,4,0,0,4,0,,,,,,,,,,,,,,,,,,,,,,,,,,,,,,,,,,,,,,,,,,,,,,,,,,,,,,,,,,,
1782733234,1782733234,219,0,4189.871582,4305,4334.743652,4454.743652,4285,4002.564209,4280.769043,4276.666504,4019.230713,4246.538574,4475,4340,4042.820557,4449.487305,2839,2,44,,,,0,4,0,2,0,0,0,4,4,0,0,4,0,0,4,0,,,,,,,,,,,,,,,,,,,,,,,,,,,,,,,,,,,,,,,,,,,,,,,,,,,,,,,,,,,
1782733234,1782733234,220,0,4199.743652,4303.461426,4337.179688,4453.974121,4284.230957,4000.897461,4282.94873,4279.230957,4020.897461,4247.179688,4482.05127,4342.563965,4041.538574,4446.282227,2842,2,44,,,,0,4,0,2,0,0,0,4,4,0,0,4,0,0,4,0,,,,,,,,,,,,,,,,,,,,,,,,,,,,,,,,,,,,,,,,,,,,,,,,,,,,,,,,,,,
1782733234,1782733234,221,0,4205.512695,4303.077148,4338.077148,4454.358887,4284.487305,4000.641113,4285.897461,4281.538574,4023.718018,4248.461426,4479.615234,4342.563965,4042.179443,4441.666504,0,2,44,,,,0,4,0,2,0,0,0,4,4,0,0,4,0,0,4,0,,,,,,,,,,,,,,,,,,,,,,,,,,,,,,,,,,,,,,,,,,,,,,,,,,,,,,,,,,,
1782733234,1782733234,222,0,4206.666504,4304.487305,4338.717773,4454.487305,4286.666504,4002.179443,4288.461426,4282.179688,4026.025635,4249.487305,4464.615234,4340,4044.487061,4437.179688,0,2,44,,,,0,4,0,2,0,0,0,4,4,0,0,4,0,0,4,0,,,,,,,,,,,,,,,,,,,,,,,,,,,,,,,,,,,,,,,,,,,,,,,,,,,,,,,,,,,
1782733234,1782733234,223,0,4204.871582,4306.410156,4339.871582,4452.436035,4289.615234,4004.743652,4288.589844,4280.384766,4026.666748,4249.230957,4447.307617,4337.179688,4047.179443,4434.230957,2839,2,44,,,,0,4,0,2,0,0,0,4,4,0,0,4,0,0,4,0,,,,,,,,,,,,,,,,,,,,,,,,,,,,,,,,,,,,,,,,,,,,,,,,,,,,,,,,,,,
1782733234,1782733234,224,0,4202.563965,4307.307617,4341.666504,4447.820313,4291.794922,4006.794922,4285.512695,4277.692383,4025.384521,4247.307617,4442.692383,4335.769043,4048.974365,4434.487305,2842,2,44,,,,0,4,0,2,0,0,0,4,4,0,0,4,0,0,4,0,,,,,,,,,,,,,,,,,,,,,,,,,,,,,,,,,,,,,,,,,,,,,,,,28,0,0.1605,0.348755,-0.710266,-0.590027,-0.165548,0.957026,-0.234037,-65.321739,-18.398516,-5.198186
1782733234,1782733234,225,0,4202.307617,4306.153809,4343.333496,4441.666504,4291.538574,4006.794922,4280.512695,4277.179688,4023.846191,4244.615234,4456.922852,4335.769043,4049.358887,4439.743652,0,2,44,,,,0,4,0,2,0,0,0,4,4,0,0,4,0,0,4,0,,,,,,,,,,,,,,,,,,,,,,,,,,,,,,,,,,,,,,,,,,,,,,,,,,,,,,,,,,,
1782733234,1782733234,226,0,4204.871582,4303.461426,4344.487305,4436.666504,4289.230957,4004.871826,4276.922852,4280.769043,4023.846191,4242.436035,4481.410156,4336.153809,4048.974365,4449.102539,0,2,44,,,,0,4,0,2,0,0,0,4,4,0,0,4,0,0,4,0,,,,,,,,,,,,,,,,,,,,,,,,,,,,,,,,,,,,,,,,,,,,,,,,,,,,,,,,,,,
1782733234,1782733234,227,0,4209.615234,4300.512695,4344.743652,4434.871582,4286.025879,4002.435791,4277.563965,4287.94873,4025.897461,4241.410156,4500,4336.410156,4048.974365,4458.717773,2839,2,44,,,,0,4,0,2,0,0,0,4,4,0,0,4,0,0,4,0,,,,,,,,,,,,,,,,,,,,,,,,,,,,,,,,,,,,,,,,,,,,,,,,,,,,,,,,,,,
1782733234,1782733234,228,0,4215.128418,4299.230957,4344.358887,4436.410156,4283.589844,4001.025635,4282.94873,4294.871582,4028.846191,4242.05127,4503.077148,4336.922852,4050.256348,4462.94873,2842,2,44,,,,0,4,0,2,0,0,0,4,4,0,0,4,0,0,4,0,,,,,,,,,,,,,,,,,,,,,,,,,,,,,,,,,,,,,,,,,,,,,,,,,,,,,,,,,,,
1782733234,1782733234,229,0,4219.358887,4300.128418,4343.461426,4438.974121,4283.205078,4001.538574,4290.256348,4297.307617,4030.769287,4244.102539,4495.512695,4337.94873,4053.461426,4459.358887,0,2,44,,,,0,4,0,2,0,0,0,4,4,0,0,4,0,0,4,0,,,,,,,,,,,,,,,,,,,,,,,,,,,,,,,,,,,,,,,,,,,,,,,,,,,,,,,,,,,
1782733234,1782733234,230,0,4219.615234,4302.436035,4341.922852,4440.128418,4284.871582,4003.461426,4296.153809,4292.820313,4030.256348,4246.538574,4490.384766,4339.358887,4058.333252,4450.256348,0,2,44,,,,0,4,0,2,0,0,0,4,4,0,0,4,0,0,4,0,,,,,,,,,,,,,,,,,,,,,,,,,,,,,,,,,,,,,,,,,,,,,,,,,,,,,,,,,,,
1782733234,1782733234,231,0,4214.871582,4304.743652,4339.615234,4438.589844,4287.307617,4005.641113,4298.717773,4283.333496,4027.692383,4247.563965,4493.717773,4340.128418,4064.230713,4441.666504,2839,2,44,,,,0,4,0,2,0,0,0,4,4,0,0,4,0,0,4,0,,,,,,,,,,,,,,,,,,,,,,,,,,,,,,,,,,,,,,,,,,,,,,,,,,,,,,,,,,,
1782733234,1782733234,232,0,4206.538574,4305.769043,4337.05127,4435.384766,4288.461426,4007.435791,4298.333496,4273.717773,4024.743652,4246.282227,4497.563965,4339.358887,4070,4437.94873,2842,2,44,,,,0,4,0,2,0,0,0,4,4,0,0,4,0,0,4,0,,,,,,,,,,,,,,,,,,,,,,,,,,,,,,,,,,,,,,,,,,,,,,,,29,0,0.160662,0.349365,-0.709473,-0.590576,-0.177268,0.964839,-0.236479,-65.306229,-18.308664,-5.261701
1782733234,1782733234,233,0,4198.077148,4305.256348,4334.871582,4432.436035,4287.692383,4009.102539,4296.922852,4268.461426,4023.205078,4244.230957,4487.692383,4337.820313,4074.743652,4439.871582,0,2,44,,,,0,4,0,2,0,0,0,4,4,0,0,4,0,0,4,0,,,,,,,,,,,,,,,,,,,,,,,,,,,,,,,,,,,,,,,,,,,,,,,,,,,,,,,,,,,
1782733234,1782733234,234,0,4191.922852,4303.589844,4333.205078,4430.512695,4285.384766,4011.794922,4294.871582,4268.717773,4023.718018,4243.333496,4458.717773,4336.538574,4078.846191,4443.717773,0,2,44,,,,0,4,0,2,0,0,0,4,4,0,0,4,0,0,4,0,,,,,,,,,,,,,,,,,,,,,,,,,,,,,,,,,,,,,,,,,,,,,,,,,,,,,,,,,,,
1782733234,1782733234,235,0,4187.563965,4302.05127,4330.512695,4428.846191,4282.94873,4015.384521,4291.538574,4271.794922,4025.384521,4244.871582,4421.794922,4336.153809,4082.564209,4444.615234,2839,2,44,,,,0,4,0,2,0,0,0,4,4,0,0,4,0,0,4,0,,,,,,,,,,,,,,,,,,,,,,,,,,,,,,,,,,,,,,,,,,,,,,,,,,,,,,,,,,,
1782733234,1782733234,236,0,4182.307617,4301.153809,4325.384766,4426.282227,4281.666504,4018.974365,4286.666504,4274.102539,4026.538574,4247.692383,4398.077148,4335.641113,4086.410156,4439.358887,2842,2,44,,,,0,4,0,2,0,0,0,4,4,0,0,4,0,0,4,0,,,,,,,,,,,,,,,,,,,,,,,,,,,,,,,,,,,,,,,,,,,,,,,,,,,,,,,,,,,
1782733234,1782733234,237,0,4174.102539,4300.897461,4318.333496,4422.94873,4282.05127,4021.025635,4281.922852,4273.717773,4026.923096,4249.615234,4403.077148,4334.102539,4090.256348,4429.230957,0,2,44,,,,0,4,0,2,0,0,0,4,4,0,0,4,0,0,4,0,,,,,,,,,,,,,,,,,,,,,,,,,,,,,,,,,,,,,,,,,,,,,,,,,,,,,,,,,,,
1782733234,1782733234,238,0,4165.128418,4300.897461,4312.563965,4420.256348,4283.589844,4020.256348,4279.871582,4271.922852,4027.564209,4249.358887,4434.743652,4331.410156,4093.846191,4419.743652,0,2,44,,,,0,4,0,2,0,0,0,4,4,0,0,4,0,0,4,0,,,,,,,,,,,,,,,,,,,,,,,,,,,,,,,,,,,,,,,,,,,,,,,,,,,,,,,,,,,
1782733234,1782733234,239,0,4160.641113,4301.153809,4311.666504,4419.230957,4285,4017.564209,4282.179688,4271.538574,4029.871826,4247.563965,4474.615234,4328.717773,4097.307617,4417.820313,2839,2,44,,,,0,4,0,2,0,0,0,4,4,0,0,4,0,0,4,0,,,,,,,,,,,,,,,,,,,,,,,,,,,,,,,,,,,,,,,,,,,,,,,,,,,,,,,,,,,
1782733234,1782733234,240,0,4164.743652,4301.794922,4316.666504,4419.871582,4285.641113,4015.256348,4287.820313,4274.102539,4033.846191,4246.153809,4501.153809,4327.563965,4100.512695,4426.922852,2842,2,44,,,,0,4,0,2,0,0,0,4,4,0,0,4,0,0,4,0,,,,,,,,,,,,,,,,,,,,,,,,,,,,,,,,,,,,,,,,,,,,,,,,30,0,0.160684,0.350098,-0.709106,-0.590576,-0.186546,0.958491,-0.253571,-65.342278,-18.294464,-5.252198
1782733234,1782733234,241,0,4176.153809,4302.563965,4324.230957,4420.769043,4285.512695,4016.025635,4294.102539,4278.846191,4038.205078,4246.410156,4504.230957,4328.333496,4103.461426,4443.205078,0,2,44,,,,0,4,0,2,0,0,0,4,4,0,0,4,0,0,4,0,,,,,,,,,,,,,,,,,,,,,,,,,,,,,,,,,,,,,,,,,,,,,,,,,,,,,,,,,,,
1782733234,1782733234,242,0,4189.230957,4302.820313,4330.128418,4420.256348,4285.769043,4020.641113,4298.461426,4283.717773,4041.281982,4247.94873,4488.077148,4330,4106.153809,4458.589844,0,2,44,,,,0,4,0,2,0,0,0,4,4,0,0,4,0,0,4,0,1,0,0,0,1,0,0,0,1,1,0,0,1,0,0,3,,,,,,,,,,,,,,,,,,,,,,,,,,,,,,,,,,,,,,,,,,,
1782733234,1782733234,243,0,4197.692383,4302.307617,4331.922852,4418.205078,4286.922852,4026.410156,4299.871582,4287.436035,4042.05127,4249.230957,4467.05127,4331.410156,4108.717773,4466.282227,2839,2,44,,,,0,4,0,2,0,0,0,4,4,0,0,4,0,0,4,0,,,,,,,,,,,,,,,,,,,,,,,,,,,,,,,,,,,,,,,,,,,,,,,,,,,,,,,,,,,
1782733234,1782733234,244,0,4200.384766,4301.922852,4331.153809,4416.153809,4289.230957,4030,4299.487305,4289.743652,4041.025635,4249.102539,4455.128418,4331.922852,4110.641113,4464.871582,2842,2,44,,,,0,4,0,2,0,0,0,4,4,0,0,4,0,0,4,0,,,,,,,,,,,,,,,,,,,,,,,,,,,,,,,,,,,,,,,,,,,,,,,,,,,,,,,,,,,
1782733234,1782733234,245,0,4200.384766,4302.692383,4330.512695,4416.153809,4291.794922,4030,4300,4290.897461,4040,4248.077148,4457.692383,4331.666504,4112.05127,4458.461426,0,2,44,,,,0,4,0,2,0,0,0,4,4,0,0,4,0,0,4,0,,,,,,,,,,,,,,,,,,,,,,,,,,,,,,,,,,,,,,,,,,,,,,,,,,,,,,,,,,,
1782733234,1782733234,246,0,4202.05127,4304.358887,4331.794922,4417.94873,4293.846191,4028.076904,4301.922852,4290.897461,4040.256348,4247.179688,4467.05127,4331.666504,4113.461426,4453.461426,0,2,44,,,,0,4,0,2,0,0,0,4,4,0,0,4,0,0,4,0,,,,,,,,,,,,,,,,,,,,,,,,,,,,,,,,,,,,,,,,,,,,,,,,,,,,,,,,,,,
1782733234,1782733234,247,0,4206.666504,4305.512695,4334.615234,4420.128418,4295,4027.179443,4303.846191,4289.615234,4042.05127,4247.179688,4469.615234,4331.666504,4115.384766,4453.461426,2839,2,44,,,,0,4,0,2,0,0,0,4,4,0,0,4,0,0,4,0,,,,,,,,,,,,,,,,,,,,,,,,,,,,,,,,,,,,,,,,,,,,,,,,,,,,,,,,,,,
1782733234,1782733234,248,0,4212.94873,4305.128418,4337.179688,4420.641113,4295,4028.718018,4302.94873,4286.922852,4043.974365,4247.94873,4458.717773,4331.410156,4117.820313,4457.94873,2842,2,44,,,,0,4,0,2,0,0,0,4,4,0,0,4,0,0,4,0,,,,,,,,,,,,,,,,,,,,,,,,,,,,,,,,,,,,,,,,,,,,,,,,31,0,0.160203,0.350586,-0.708923,-0.590637,-0.193383,0.953119,-0.250153,-65.308044,-18.281685,-5.360312
1782733234,1782733234,249,0,4217.692383,4303.333496,4338.205078,4419.102539,4293.846191,4031.281982,4298.974121,4283.333496,4044.615479,4248.205078,4440.641113,4330.384766,4120.256348,4462.820313,0,2,44,,,,0,4,0,2,0,0,0,4,4,0,0,4,0,0,4,0,,,,,,,,,,,,,,,,,,,,,,,,,,,,,,,,,,,,,,,,,,,,,,,,,,,,,,,,,,,
1782733234,1782733234,250,0,4219.743652,4301.410156,4337.692383,4416.538574,4291.922852,4032.564209,4293.846191,4280,4044.230713,4247.179688,4428.717773,4328.717773,4121.282227,4462.692383,0,2,44,,,,0,4,0,2,0,0,0,4,4,0,0,4,0,0,4,0,,,,,,,,,,,,,,,,,,,,,,,,,,,,,,,,,,,,,,,,,,,,,,,,,,,,,,,,,,,
1782733234,1782733234,251,0,4220.256348,4300.512695,4337.05127,4414.230957,4290.128418,4031.410156,4290.769043,4278.205078,4043.718018,4245.256348,4432.179688,4327.179688,4120.897461,4455.897461,2839,2,44,,,,0,4,0,2,0,0,0,4,4,0,0,4,0,0,4,0,,,,,,,,,,,,,,,,,,,,,,,,,,,,,,,,,,,,,,,,,,,,,,,,,,,,,,,,,,,
1782733234,1782733234,252,0,4222.179688,4301.153809,4337.179688,4413.333496,4289.230957,4028.461426,4290.769043,4278.589844,4044.358887,4243.589844,4450.512695,4326.410156,4120.256348,4446.025879,2842,2,44,,,,0,4,0,2,0,0,0,4,4,0,0,4,0,0,4,0,,,,,,,,,,,,,,,,,,,,,,,,,,,,,,,,,,,,,,,,,,,,,,,,,,,,,,,,,,,
1782733234,1782733234,253,0,4226.794922,4303.077148,4338.717773,4413.461426,4289.743652,4025.641113,4292.692383,4280.128418,4046.666748,4243.333496,4473.974121,4326.922852,4120.641113,4439.102539,0,2,44,,,,0,4,0,2,0,0,0,4,4,0,0,4,0,0,4,0,,,,,,,,,,,,,,,,,,,,,,,,,,,,,,,,,,,,,,,,,,,,,,,,,,,,,,,,,,,
1782733234,1782733234,254,0,4232.179688,4305.128418,4340.897461,4414.230957,4291.666504,4024.358887,4294.230957,4281.794922,4050.256348,4244.615234,4490,4328.205078,4122.436035,4439.743652,0,2,44,,,,0,4,0,2,0,0,0,4,4,0,0,4,0,0,4,0,,,,,,,,,,,,,,,,,,,,,,,,,,,,,,,,,,,,,,,,,,,,,,,,,,,,,,,,,,,
1782733234,1782733234,255,0,4235.384766,4306.666504,4342.94873,4414.615234,4293.846191,4024.871826,4294.102539,4283.589844,4054.102539,4246.666504,4491.282227,4329.615234,4124.358887,4446.922852,44,2,44,,,,0,4,0,2,0,0,0,4,4,0,0,4,0,0,4,0,,,,,,,,,,,,,,,,,,,,,,,,,,,,,,,,,,,,,,,,,,,,,,,,,,,,,,,,,,,
1782733234,1782733234,0,0,4234.871582,4306.922852,4344.487305,4413.974121,4295.641113,4026.538574,4292.692383,4285.641113,4057.05127,4248.461426,4480.512695,4330,4125.641113,4455.641113,1028,2,44,,,,0,4,0,2,0,0,0,4,4,0,0,4,0,0,4,0,,,,,,,,,,,,,,,,,,,,,,,,,,,,,,,,,,,,,,,,,,,,,,,,0,0,0.160396,0.351196,-0.708679,-0.590515,-0.173849,0.958003,-0.252594,-65.310577,-18.053516,-5.17428
1782733234,1782733234,1,0,4232.307617,4305.897461,4345.512695,4412.436035,4295.897461,4028.461426,4291.282227,4287.179688,4058.974365,4249.102539,4467.563965,4329.487305,4125.769043,4461.282227,0,2,44,,,,0,4,0,2,0,0,0,4,4,0,0,4,0,0,4,0,,,,,,,,,,,,,,,,,,,,,,,,,,,,,,,,,,,,,,,,,,,,,,,,,,,,,,,,,,,
1782733234,1782733234,2,0,4231.794922,4304.230957,4346.410156,4410.641113,4295,4030.256348,4291.410156,4286.538574,4059.871826,4248.589844,4460.384766,4328.461426,4125.256348,4462.05127,2449,2,44,,,,0,4,0,2,0,0,0,4,4,0,0,4,0,0,4,0,,,,,,,,,,,,,,,,,,,,,,,,,,,,,,,,,,,,,,,,,,,,,,,,,,,,,,,,,,,
1782733234,1782733234,3,0,4236.410156,4303.077148,4347.692383,4409.615234,4293.717773,4031.666748,4293.461426,4283.205078,4059.871826,4247.692383,4459.487305,4327.692383,4125.256348,4459.743652,0,2,44,,,,0,4,0,2,0,0,0,4,4,0,0,4,0,0,4,0,,,,,,,,,,,,,,,,,,,,,,,,,,,,,,,,,,,,,,,,,,,,,,,,,,,,,,,,,,,
1782733234,1782733234,4,0,4245.641113,4302.94873,4349.358887,4410,4293.333496,4032.94873,4296.794922,4279.102539,4059.230713,4247.179688,4459.615234,4327.820313,4125.769043,4457.307617,0,2,44,,,,0,4,0,2,0,0,0,4,4,0,0,4,0,0,4,0,,,,,,,,,,,,,,,,,,,,,,,,,,,,,,,,,,,,,,,,,,,,,,,,,,,,,,,,,,,
1782733234,1782733234,5,0,4255.641113,4303.461426,4351.410156,4411.666504,4293.974121,4033.974365,4299.358887,4277.436035,4058.333252,4247.563965,4456.410156,4328.717773,4126.666504,4458.205078,0,2,44,,,,0,4,0,2,0,0,0,4,4,0,0,4,0,0,4,0,,,,,,,,,,,,,,,,,,,,,,,,,,,,,,,,,,,,,,,,,,,,,,,,,,,,,,,,,,,
1782733234,1782733234,6,0,4261.922852,4304.102539,4353.846191,4414.487305,4295.128418,4034.102539,4299.487305,4280.128418,4058.461426,4248.461426,4451.282227,4329.615234,4127.563965,4463.205078,1960,2,44,,,,0,4,0,2,0,0,0,4,4,0,0,4,0,0,4,0,,,,,,,,,,,,,,,,,,,,,,,,,,,,,,,,,,,,,,,,,,,,,,,,,,,,,,,,,,,
1782733234,1782733234,7,0,4262.436035,4304.615234,4355.641113,4418.333496,4295.384766,4033.076904,4297.05127,4285.769043,4060.128174,4249.102539,4449.102539,4329.487305,4128.461426,4470.512695,1932,2,44,,,,0,4,0,2,0,0,0,4,4,0,0,4,0,0,4,0,,,,,,,,,,,,,,,,,,,,,,,,,,,,,,,,,,,,,,,,,,,,,,,,,,,,,,,,,,,
1782733234,1782733234,8,0,4258.461426,4304.871582,4356.410156,4422.94873,4295,4032.307617,4293.717773,4291.153809,4062.820557,4249.102539,4452.436035,4328.205078,4129.487305,4475.897461,0,2,44,,,,0,4,0,2,0,0,0,4,4,0,0,4,0,0,4,0,,,,,,,,,,,,,,,,,,,,,,,,,,,,,,,,,,,,,,,,,,,,,,,,1,0,0.160757,0.351318,-0.708435,-0.590637,-0.183128,0.957026,-0.253083,-65.246185,-18.131498,-5.156852
1782733234,1782733234,9,0,4253.333496,4304.358887,4355.897461,4427.307617,4294.358887,4033.076904,4291.922852,4293.846191,4065,4248.461426,4458.717773,4326.538574,4130.769043,4475.641113,0,2,44,,,,0,4,0,2,0,0,0,4,4,0,0,4,0,0,4,0,,,,,,,,,,,,,,,,,,,,,,,,,,,,,,,,,,,,,,,,,,,,,,,,,,,,,,,,,,,
1782733234,1782733234,10,0,4249.743652,4302.94873,4354.358887,4430.512695,4294.358887,4035.384521,4292.94873,4294.102539,4065.641113,4248.205078,4463.974121,4325.512695,4132.179688,4470.128418,0,2,44,,,,0,4,0,2,0,0,0,4,4,0,0,4,0,0,4,0,,,,,,,,,,,,,,,,,,,,,,,,,,,,,,,,,,,,,,,,,,,,,,,,,,,,,,,,,,,
1782733234,1782733234,11,0,4249.102539,4301.282227,4352.179688,4431.538574,4294.871582,4037.307617,4296.794922,4293.589844,4064.487061,4248.461426,4468.333496,4325.769043,4133.589844,4462.94873,2850,2,44,,,,0,4,0,2,0,0,0,4,4,0,0,4,0,0,4,0,,,,,,,,,,,,,,,,,,,,,,,,,,,,,,,,,,,,,,,,,,,,,,,,,,,,,,,,,,,
1782733234,1782733234,12,0,4250.512695,4300.128418,4350.512695,4430.512695,4295.256348,4036.923096,4301.794922,4293.333496,4062.820557,4248.717773,4476.025879,4327.179688,4134.871582,4458.461426,2892,2,44,,,,0,4,0,2,0,0,0,4,4,0,0,4,0,0,4,0,,,,,,,,,,,,,,,,,,,,,,,,,,,,,,,,,,,,,,,,,,,,,,,,,,,,,,,,,,,
1782733234,1782733234,13,0,4251.410156,4300,4350,4428.461426,4295.128418,4034.102539,4305.512695,4293.846191,4062.692383,4248.461426,4487.563965,4328.589844,4136.282227,4457.820313,0,2,44,,,,0,4,0,2,0,0,0,4,4,0,0,4,0,0,4,0,,,,,,,,,,,,,,,,,,,,,,,,,,,,,,,,,,,,,,,,,,,,,,,,,,,,,,,,,,,
1782733234,1782733234,14,0,4250.769043,4301.025879,4351.153809,4426.538574,4294.615234,4031.538574,4306.282227,4294.743652,4065.256348,4247.436035,4496.538574,4329.230957,4138.205078,4460.128418,0,2,44,,,,0,4,0,2,0,0,0,4,4,0,0,4,0,0,4,0,,,,,,,,,,,,,,,,,,,,,,,,,,,,,,,,,,,,,,,,,,,,,,,,,,,,,,,,,,,
1782733234,1782733234,15,0,4249.230957,4302.820313,4353.205078,4425.512695,4294.230957,4031.281982,4304.230957,4296.410156,4069.487061,4246.666504,4494.615234,4328.589844,4140.384766,4463.846191,2850,2,44,,,,0,4,0,2,0,0,0,4,4,0,0,4,0,0,4,0,,,,,,,,,,,,,,,,,,,,,,,,,,,,,,,,,,,,,,,,,,,,,,,,,,,,,,,,,,,
1782733234,1782733234,16,0,4249.102539,4304.358887,4355.384766,4425.769043,4294.230957,4033.461426,4300.769043,4298.846191,4073.076904,4246.410156,4480.641113,4327.307617,4142.05127,4467.820313,2892,2,44,,,,0,4,0,2,0,0,0,4,4,0,0,4,0,0,4,0,,,,,,,,,,,,,,,,,,,,,,,,,,,,,,,,,,,,,,,,,,,,,,,,2,0,0.160796,0.351135,-0.708008,-0.591248,-0.180198,0.963374,-0.256989,-65.188232,-18.035015,-5.141167
1782733234,1782733234,17,0,4250.641113,4305,4356.410156,4426.410156,4294.871582,4036.666748,4297.307617,4301.153809,4074.358887,4246.794922,4463.333496,4326.153809,4142.692383,4470.512695,0,2,44,,,,0,4,0,2,0,0,0,4,4,0,0,4,0,0,4,0,,,,,,,,,,,,,,,,,,,,,,,,,,,,,,,,,,,,,,,,,,,,,,,,,,,,,,,,,,,
1782733234,1782733234,18,0,4251.410156,4304.487305,4355.641113,4426.538574,4295.897461,4039.102539,4294.871582,4301.666504,4073.461426,4247.307617,4453.461426,4325.128418,4142.820313,4468.846191,0,2,44,,,,0,4,0,2,0,0,0,4,4,0,0,4,0,0,4,0,,,,,,,,,,,,,,,,,,,,,,,,,,,,,,,,,,,,,,,,,,,,,,,,,,,,,,,,,,,
1782733234,1782733234,19,0,4248.205078,4303.461426,4352.820313,4425.769043,4296.666504,4039.871826,4293.589844,4298.589844,4071.666748,4247.436035,4455,4323.589844,4143.589844,4460.769043,2850,2,44,,,,0,4,0,2,0,0,0,4,4,0,0,4,0,0,4,0,,,,,,,,,,,,,,,,,,,,,,,,,,,,,,,,,,,,,,,,,,,,,,,,,,,,,,,,,,,
1782733234,1782733234,20,0,4240.384766,4302.563965,4348.846191,4424.358887,4296.282227,4039.230713,4293.461426,4291.538574,4070.897461,4247.05127,4461.410156,4321.153809,4144.871582,4447.563965,2892,2,44,,,,0,4,0,2,0,0,0,4,4,0,0,4,0,0,4,0,,,,,,,,,,,,,,,,,,,,,,,,,,,,,,,,,,,,,,,,,,,,,,,,,,,,,,,,,,,
1782733234,1782733234,21,0,4231.794922,4302.436035,4345.384766,4422.436035,4294.615234,4037.692383,4293.589844,4282.436035,4072.435791,4246.025879,4460.769043,4318.205078,4146.153809,4433.461426,0,2,44,,,,0,4,0,2,0,0,0,4,4,0,0,4,0,0,4,0,,,,,,,,,,,,,,,,,,,,,,,,,,,,,,,,,,,,,,,,,,,,,,,,,,,,,,,,,,,
1782733234,1782733234,22,0,4226.922852,4303.205078,4343.589844,4419.615234,4292.307617,4036.410156,4293.461426,4275.128418,4076.025635,4245.256348,4447.563965,4315.769043,4146.922852,4424.102539,0,2,44,,,,0,4,0,2,0,0,0,4,4,0,0,4,0,0,4,0,,,,,,,,,,,,,,,,,,,,,,,,,,,,,,,,,,,,,,,,,,,,,,,,,,,,,,,,,,,
1782733234,1782733234,23,0,4226.922852,4304.230957,4343.974121,4416.410156,4291.025879,4035.897461,4293.077148,4273.461426,4079.743652,4245.384766,4429.230957,4315.384766,4147.820313,4422.436035,2850,2,44,,,,0,4,0,2,0,0,0,4,4,0,0,4,0,0,4,0,,,,,,,,,,,,,,,,,,,,,,,,,,,,,,,,,,,,,,,,,,,,,,,,,,,,,,,,,,,
1782733234,1782733234,24,0,4229.102539,4304.487305,4345.384766,4413.717773,4291.282227,4036.281982,4292.94873,4278.077148,4081.923096,4246.282227,4420.256348,4317.307617,4150.128418,4427.692383,2892,2,44,,,,0,4,0,2,0,0,0,4,4,0,0,4,0,0,4,0,,,,,,,,,,,,,,,,,,,,,,,,,,,,,,,,,,,,,,,,,,,,,,,,3,0,0.160792,0.351135,-0.707703,-0.591614,-0.182151,0.967281,-0.256989,-65.169411,-18.04818,-5.143717
1782733234,1782733234,25,0,4229.230957,4303.717773,4346.666504,4412.692383,4292.94873,4037.05127,4293.461426,4286.282227,4082.179443,4247.05127,4428.205078,4320.128418,4154.102539,4436.153809,0,2,44,,,,0,4,0,2,0,0,0,4,4,0,0,4,0,0,4,0,,,,,,,,,,,,,,,,,,,,,,,,,,,,,,,,,,,,,,,,,,,,,,,,,,,,,,,,,,,
1782733234,1782733234,26,0,4225.769043,4302.563965,4346.922852,4413.717773,4294.615234,4037.94873,4294.358887,4293.205078,4081.666748,4247.307617,4447.179688,4322.436035,4158.589844,4443.205078,0,2,44,,,,0,4,0,2,0,0,0,4,4,0,0,4,0,0,4,0,,,,,,,,,,,,,,,,,,,,,,,,,,,,,,,,,,,,,,,,,,,,,,,,,,,,,,,,,,,
1782733234,1782733234,27,0,4221.282227,4302.307617,4346.410156,4415.512695,4295.769043,4038.974365,4295.641113,4296.153809,4081.666748,4247.692383,4463.333496,4322.94873,4161.538574,4446.153809,2850,2,44,,,,0,4,0,2,0,0,0,4,4,0,0,4,0,0,4,0,,,,,,,,,,,,,,,,,,,,,,,,,,,,,,,,,,,,,,,,,,,,,,,,,,,,,,,,,,,
1782733234,1782733234,28,0,4219.743652,4303.333496,4346.025879,4416.410156,4296.025879,4040,4297.05127,4295.897461,4082.435791,4248.846191,4465.256348,4322.307617,4162.179688,4444.743652,2892,2,44,,,,0,4,0,2,0,0,0,4,4,0,0,4,0,0,4,0,,,,,,,,,,,,,,,,,,,,,,,,,,,,,,,,,,,,,,,,,,,,,,,,,,,,,,,,,,,
1782733234,1782733234,29,0,4222.563965,4304.743652,4346.282227,4415.256348,4295.769043,4040.512939,4298.589844,4295,4084.102539,4249.743652,4452.05127,4321.666504,4161.153809,4441.410156,0,2,44,,,,0,4,0,2,0,0,0,4,4,0,0,4,0,0,4,0,,,,,,,,,,,,,,,,,,,,,,,,,,,,,,,,,,,,,,,,,,,,,,,,,,,,,,,,,,,
1782733234,1782733234,30,0,4227.179688,4305.512695,4346.922852,4412.94873,4294.871582,4039.871826,4300.128418,4295.769043,4085.769287,4248.589844,4432.307617,4321.794922,4160.256348,4438.846191,0,2,44,,,,0,4,0,2,0,0,0,4,4,0,0,4,0,0,4,0,,,,,,,,,,,,,,,,,,,,,,,,,,,,,,,,,,,,,,,,,,,,,,,,,,,,,,,,,,,
1782733234,1782733234,31,0,4229.487305,4304.871582,4347.563965,4410.897461,4293.589844,4038.846191,4301.025879,4298.077148,4086.666748,4245.512695,4418.717773,4322.820313,4160.769043,4439.358887,2850,2,44,,,,0,4,0,2,0,0,0,4,4,0,0,4,0,0,4,0,,,,,,,,,,,,,,,,,,,,,,,,,,,,,,,,,,,,,,,,,,,,,,,,,,,,,,,,,,,
1782733234,1782733234,32,0,4227.179688,4303.205078,4348.077148,4410.128418,4292.692383,4038.718018,4301.538574,4300,4086.538574,4241.794922,4420.256348,4323.589844,4162.692383,4443.205078,0,2,44,,,,0,4,0,2,0,0,0,4,4,0,0,4,0,0,4,0,,,,,,,,,,,,,,,,,,,,,,,,,,,,,,,,,,,,,,,,,,,,,,,,4,0,0.161052,0.350891,-0.707458,-0.59198,-0.171408,0.974606,-0.241362,-65.152466,-17.976694,-5.179345
1782733234,1782733234,33,0,4221.794922,4301.666504,4348.974121,4410.769043,4292.563965,4039.615479,4302.94873,4300.384766,4086.281982,4240.128418,4438.205078,4323.589844,4164.487305,4449.230957,0,2,44,,,,0,4,0,2,0,0,0,4,4,0,0,4,0,0,4,0,,,,,,,,,,,,,,,,,,,,,,,,,,,,,,,,,,,,,,,,,,,,,,,,,,,,,,,,,,,
1782733234,1782733234,34,0,4217.563965,4301.153809,4350.256348,4411.410156,4293.333496,4040.641113,4306.282227,4298.846191,4086.538574,4241.282227,4463.589844,4323.205078,4164.871582,4455.512695,0,2,44,,,,0,4,0,2,0,0,0,4,4,0,0,4,0,0,4,0,,,,,,,,,,,,,,,,,,,,,,,,,,,,,,,,,,,,,,,,,,,,,,,,,,,,,,,,,,,
1782733234,1782733234,35,0,4216.538574,4302.179688,4350.897461,4410.897461,4294.615234,4040.128174,4311.025879,4296.153809,4087.564209,4244.102539,4482.692383,4322.94873,4163.461426,4459.871582,0,2,44,,,,0,4,0,2,0,0,0,4,4,0,0,4,0,0,4,0,,,,,,,,,,,,,,,,,,,,,,,,,,,,,,,,,,,,,,,,,,,,,,,,,,,,,,,,,,,
1782733234,1782733234,36,0,4217.307617,4303.974121,4350,4408.205078,4295.769043,4038.846191,4313.846191,4293.461426,4088.846191,4246.410156,4485.256348,4323.846191,4161.922852,4461.282227,0,2,44,,,,0,4,0,2,0,0,0,4,4,0,0,4,0,0,4,0,,,,,,,,,,,,,,,,,,,,,,,,,,,,,,,,,,,,,,,,,,,,,,,,,,,,,,,,,,,
1782733234,1782733234,37,0,4217.436035,4305.256348,4347.692383,4403.717773,4296.666504,4038.589844,4312.179688,4291.922852,4090.256348,4246.538574,4472.436035,4325.641113,4162.436035,4460.512695,0,2,44,,,,0,4,0,2,0,0,0,4,4,0,0,4,0,0,4,0,,,,,,,,,,,,,,,,,,,,,,,,,,,,,,,,,,,,,,,,,,,,,,,,,,,,,,,,,,,
1782733234,1782733234,38,0,4215.897461,4305.384766,4345.128418,4398.846191,4297.05127,4040.641113,4305.897461,4292.179688,4091.666748,4245,4455.512695,4327.820313,4165.512695,4460.512695,0,2,44,,,,0,4,0,2,0,0,0,4,4,0,0,4,0,0,4,0,,,,,,,,,,,,,,,,,,,,,,,,,,,,,,,,,,,,,,,,,,,,,,,,,,,,,,,,,,,
1782733234,1782733234,39,0,4214.615234,4304.615234,4344.230957,4395.641113,4297.436035,4044.358887,4298.205078,4293.974121,4092.820557,4243.589844,4446.282227,4329.102539,4169.487305,4463.589844,0,2,44,,,,0,4,0,2,0,0,0,4,4,0,0,4,0,0,4,0,,,,,,,,,,,,,,,,,,,,,,,,,,,,,,,,,,,,,,,,,,,,,,,,,,,,,,,,,,,
1782733234,1782733234,40,0,4216.410156,4303.846191,4345.897461,4394.871582,4297.94873,4047.05127,4293.717773,4295.384766,4093.846191,4243.717773,4447.94873,4328.846191,4171.666504,4469.487305,0,2,44,,,,0,4,0,2,0,0,0,4,4,0,0,4,0,0,4,0,,,,,,,,,,,,,,,,,,,,,,,,,,,,,,,,,,,,,,,,,,,,,,,,5,0,0.160812,0.350403,-0.707397,-0.592407,-0.182639,0.952631,-0.236967,-65.087219,-17.862358,-5.144744
1782733234,1782733234,41,0,4222.307617,4302.94873,4349.487305,4395.512695,4298.717773,4047.05127,4295.641113,4295.128418,4095,4245.897461,4454.615234,4326.922852,4171.025879,4474.743652,0,2,44,,,,0,4,0,2,0,0,0,4,4,0,0,4,0,0,4,0,,,,,,,,,,,,,,,,,,,,,,,,,,,,,,,,,,,,,,,,,,,,,,,,,,,,,,,,,,,
1782733234,1782733234,42,0,4230.384766,4301.666504,4353.077148,4396.538574,4299.102539,4044.615479,4303.846191,4293.077148,4096.410156,4248.974121,4458.333496,4324.230957,4168.846191,4476.538574,0,2,44,,,,0,4,0,2,0,0,0,4,4,0,0,4,0,0,4,0,,,,,,,,,,,,,,,,,,,,,,,,,,,,,,,,,,,,,,,,,,,,,,,,,,,,,,,,,,,
1782733234,1782733234,43,0,4237.179688,4299.871582,4354.615234,4397.179688,4298.846191,4041.794922,4313.717773,4290.641113,4098.205078,4251.666504,4456.153809,4322.179688,4167.436035,4475.256348,0,2,44,,,,0,4,0,2,0,0,0,4,4,0,0,4,0,0,4,0,,,,,,,,,,,,,,,,,,,,,,,,,,,,,,,,,,,,,,,,,,,,,,,,,,,,,,,,,,,
1782733234,1782733234,44,0,4241.025879,4298.077148,4354.743652,4397.436035,4297.692383,4041.538574,4319.615234,4289.358887,4099.615234,4252.436035,4452.05127,4321.794922,4167.692383,4473.333496,0,2,44,,,,0,4,0,2,0,0,0,4,4,0,0,4,0,0,4,0,,,,,,,,,,,,,,,,,,,,,,,,,,,,,,,,,,,,,,,,,,,,,,,,,,,,,,,,,,,
1782733234,1782733234,45,0,4242.820313,4297.179688,4355,4397.05127,4296.410156,4044.743652,4317.307617,4290,4100.384766,4250.256348,4452.436035,4322.94873,4168.974121,4473.205078,0,2,44,,,,0,4,0,2,0,0,0,4,4,0,0,4,0,0,4,0,,,,,,,,,,,,,,,,,,,,,,,,,,,,,,,,,,,,,,,,,,,,,,,,,,,,,,,,,,,
1782733234,1782733234,46,0,4244.487305,4297.692383,4356.025879,4395.641113,4295.897461,4049.743652,4308.333496,4292.179688,4099.743652,4246.666504,4460.897461,4324.615234,4170,4474.487305,0,2,44,,,,0,4,0,2,0,0,0,4,4,0,0,4,0,0,4,0,,,,,,,,,,,,,,,,,,,,,,,,,,,,,,,,,,,,,,,,,,,,,,,,,,,,,,,,,,,
1782733234,1782733234,47,0,4246.666504,4298.846191,4357.05127,4392.436035,4296.410156,4053.461426,4298.205078,4294.230957,4098.205078,4243.717773,4471.666504,4325.641113,4169.871582,4474.871582,0,2,44,,,,0,4,0,2,0,0,0,4,4,0,0,4,0,0,4,0,,,,,,,,,,,,,,,,,,,,,,,,,,,,,,,,,,,,,,,,,,,,,,,,,,,,,,,,,,,
1782733234,1782733234,48,0,4248.077148,4299.230957,4356.410156,4387.820313,4297.436035,4053.974365,4293.205078,4295,4096.666504,4243.077148,4473.846191,4325.256348,4169.358887,4472.05127,0,2,44,,,,0,4,0,2,0,0,0,4,4,0,0,4,0,0,4,0,,,,,,,,,,,,,,,,,,,,,,,,,,,,,,,,,,,,,,,,,,,,,,,,6,0,0.160579,0.35022,-0.707336,-0.592651,-0.180198,0.949701,-0.243804,-65.111832,-17.809456,-5.03027
1782733234,1782733235,49,0,4248.333496,4298.333496,4353.974121,4383.333496,4298.333496,4052.564209,4295.512695,4294.358887,4096.410156,4243.846191,4460.256348,4324.102539,4169.230957,4466.025879,0,2,44,,,,0,4,0,2,0,0,0,4,4,0,0,4,0,0,4,0,,,,,,,,,,,,,,,,,,,,,,,,,,,,,,,,,,,,,,,,,,,,,,,,,,,,,,,,,,,
1782733235,1782733235,50,0,4247.692383,4297.436035,4351.794922,4380.769043,4298.205078,4051.538574,4302.692383,4293.589844,4097.563965,4244.615234,4436.282227,4323.333496,4170.512695,4459.230957,0,2,44,,,,0,4,0,2,0,0,0,4,4,0,0,4,0,0,4,0,,,,,,,,,,,,,,,,,,,,,,,,,,,,,,,,,,,,,,,,,,,,,,,,,,,,,,,,,,,
1782733235,1782733235,51,0,4247.436035,4297.436035,4351.538574,4381.153809,4297.179688,4052.179443,4309.358887,4293.461426,4099.358887,4245.128418,4416.282227,4323.589844,4173.846191,4454.743652,0,2,44,,,,0,4,0,2,0,0,0,4,4,0,0,4,0,0,4,0,,,,,,,,,,,,,,,,,,,,,,,,,,,,,,,,,,,,,,,,,,,,,,,,,,,,,,,,,,,
1782733235,1782733235,52,0,4247.94873,4298.333496,4353.461426,4383.205078,4295.769043,4053.974365,4311.794922,4294.358887,4101.282227,4245.512695,4411.282227,4324.487305,4179.358887,4454.615234,0,2,44,,,,0,4,0,2,0,0,0,4,4,0,0,4,0,0,4,0,,,,,,,,,,,,,,,,,,,,,,,,,,,,,,,,,,,,,,,,,,,,,,,,,,,,,,,,,,,
1782733235,1782733235,53,0,4248.974121,4299.230957,4356.153809,4384.871582,4295.128418,4055.256348,4310.256348,4295.641113,4102.436035,4246.538574,4420.512695,4324.871582,4186.153809,4458.461426,0,2,44,,,,0,4,0,2,0,0,0,4,4,0,0,4,0,0,4,0,,,,,,,,,,,,,,,,,,,,,,,,,,,,,,,,,,,,,,,,,,,,,,,,,,,,,,,,,,,
1782733235,1782733235,54,0,4249.871582,4299.487305,4357.563965,4385,4295.384766,4056.153809,4308.333496,4296.538574,4103.461426,4247.307617,4435.128418,4324.487305,4192.692383,4465.128418,0,2,44,,,,0,4,0,2,0,0,0,4,4,0,0,4,0,0,4,0,,,,,,,,,,,,,,,,,,,,,,,,,,,,,,,,,,,,,,,,,,,,,,,,,,,,,,,,,,,
1782733235,1782733235,55,0,4250.128418,4299.102539,4357.05127,4383.333496,4296.666504,4057.564209,4309.230957,4296.666504,4104.871582,4245.769043,4447.820313,4323.717773,4197.820313,4473.205078,0,2,44,,,,0,4,0,2,0,0,0,4,4,0,0,4,0,0,4,0,,,,,,,,,,,,,,,,,,,,,,,,,,,,,,,,,,,,,,,,,,,,,,,,,,,,,,,,,,,
1782733235,1782733235,56,0,4249.615234,4298.846191,4355.256348,4381.410156,4298.333496,4061.025635,4312.563965,4296.922852,4107.563965,4240.256348,4457.692383,4323.333496,4202.436035,4480.128418,0,2,44,,,,0,4,0,2,0,0,0,4,4,0,0,4,0,0,4,0,,,,,,,,,,,,,,,,,,,,,,,,,,,,,,,,,,,,,,,,,,,,,,,,7,0,0.160228,0.350464,-0.707397,-0.592529,-0.209498,0.942376,-0.252106,-65.117317,-17.745178,-5.027243
1782733235,1782733235,57,0,4248.333496,4298.846191,4353.205078,4380.256348,4299.743652,4065.897461,4314.871582,4298.461426,4111.153809,4231.153809,4466.538574,4323.333496,4207.436035,4482.563965,0,2,44,,,,0,4,0,2,0,0,0,4,4,0,0,4,0,0,4,0,,,,,,,,,,,,,,,,,,,,,,,,,,,,,,,,,,,,,,,,,,,,,,,,,,,,,,,,,,,
1782733235,1782733235,58,0,4245.256348,4298.974121,4351.538574,4380.256348,4300.128418,4070.512939,4312.307617,4300.897461,4114.871582,4221.025879,4473.846191,4322.692383,4213.077148,4476.922852,0,2,44,,,,0,4,0,2,0,0,0,4,4,0,0,4,0,0,4,0,,,,,,,,,,,,,,,,,,,,,,,,,,,,,,,,,,,,,,,,,,,,,,,,,,,,,,,,,,,
1782733235,1782733235,59,0,4240,4299.102539,4349.743652,4380.512695,4299.615234,4073.076904,4304.871582,4302.179688,4117.820313,4213.333496,4476.666504,4321.153809,4217.820313,4462.820313,0,2,44,,,,0,4,0,2,0,0,0,4,4,0,0,4,0,0,4,0,,,,,,,,,,,,,,,,,,,,,,,,,,,,,,,,,,,,,,,,,,,,,,,,,,,,,,,,,,,
1782733235,1782733235,60,0,4233.589844,4299.102539,4347.94873,4380.256348,4298.974121,4073.333252,4297.436035,4299.871582,4120,4209.615234,4473.077148,4318.974121,4220.897461,4445.256348,0,2,44,,,,0,4,0,2,0,0,0,4,4,0,0,4,0,0,4,0,,,,,,,,,,,,,,,,,,,,,,,,,,,,,,,,,,,,,,,,,,,,,,,,,,,,,,,,,,,
1782733235,1782733235,61,0,4228.846191,4298.974121,4346.282227,4379.358887,4298.974121,4072.435791,4297.436035,4294.487305,4121.794922,4209.230957,4464.871582,4317.179688,4222.05127,4432.307617,0,2,44,,,,0,4,0,2,0,0,0,4,4,0,0,4,0,0,4,0,,,,,,,,,,,,,,,,,,,,,,,,,,,,,,,,,,,,,,,,,,,,,,,,,,,,,,,,,,,
1782733235,1782733235,62,0,4228.846191,4298.974121,4345.641113,4377.94873,4299.871582,4072.307617,4308.077148,4288.589844,4123.461426,4210.128418,4455,4316.666504,4221.794922,4430.384766,0,2,44,,,,0,4,0,2,0,0,0,4,4,0,0,4,0,0,4,0,,,,,,,,,,,,,,,,,,,,,,,,,,,,,,,,,,,,,,,,,,,,,,,,,,,,,,,,,,,
1782733235,1782733235,63,0,4233.717773,4298.974121,4346.538574,4376.538574,4301.025879,4073.205078,4323.333496,4285.384766,4124.871582,4210.769043,4443.333496,4316.794922,4220.769043,4438.589844,0,2,44,,,,0,4,0,2,0,0,0,4,4,0,0,4,0,0,4,0,,,,,,,,,,,,,,,,,,,,,,,,,,,,,,,,,,,,,,,,,,,,,,,,,,,,,,,,,,,
1782733235,1782733235,64,0,4240.641113,4298.974121,4348.333496,4376.025879,4301.410156,4074.230713,4332.05127,4285.128418,4125.512695,4210.256348,4428.717773,4316.922852,4220.128418,4448.974121,0,2,44,,,,0,4,0,2,0,0,0,4,4,0,0,4,0,0,4,0,,,,,,,,,,,,,,,,,,,,,,,,,,,,,,,,,,,,,,,,,,,,,,,,8,0,0.160101,0.350891,-0.707214,-0.592529,-0.175803,0.948236,-0.249176,-65.07225,-17.720659,-5.141185
1782733235,1782733235,65,0,4246.282227,4298.974121,4350,4376.538574,4301.025879,4073.974365,4327.307617,4286.410156,4125.384766,4209.871582,4412.94873,4316.153809,4220.769043,4453.717773,0,2,44,,,,0,4,0,2,0,0,0,4,4,0,0,4,0,0,4,0,,,,,,,,,,,,,,,,,,,,,,,,,,,,,,,,,,,,,,,,,,,,,,,,,,,,,,,,,,,
1782733235,1782733235,66,0,4248.846191,4298.974121,4350.512695,4378.589844,4300,4072.179443,4311.666504,4287.820313,4125.128418,4210.897461,4402.563965,4315.256348,4222.692383,4451.025879,0,2,44,,,,0,4,0,2,0,0,0,4,4,0,0,4,0,0,4,0,,,,,,,,,,,,,,,,,,,,,,,,,,,,,,,,,,,,,,,,,,,,,,,,,,,,,,,,,,,
1782733235,1782733235,67,0,4249.230957,4298.974121,4350.256348,4382.05127,4298.846191,4070.256348,4296.282227,4290.128418,4125.769043,4213.974121,4404.615234,4315.256348,4225.128418,4445.769043,0,2,44,,,,0,4,0,2,0,0,0,4,4,0,0,4,0,0,4,0,,,,,,,,,,,,,,,,,,,,,,,,,,,,,,,,,,,,,,,,,,,,,,,,,,,,,,,,,,,
1782733235,1782733235,68,0,4249.743652,4298.974121,4350.128418,4385.384766,4297.94873,4070.384521,4290.897461,4294.743652,4127.692383,4217.692383,4420.256348,4316.410156,4226.666504,4444.102539,0,2,44,,,,0,4,0,2,0,0,0,4,4,0,0,4,0,0,4,0,,,,,,,,,,,,,,,,,,,,,,,,,,,,,,,,,,,,,,,,,,,,,,,,,,,,,,,,,,,
1782733235,1782733235,69,0,4251.025879,4298.974121,4350.384766,4387.05127,4297.94873,4073.076904,4297.692383,4301.410156,4130.384766,4219.487305,4443.333496,4318.333496,4226.410156,4448.077148,0,2,44,,,,0,4,0,2,0,0,0,4,4,0,0,4,0,0,4,0,,,,,,,,,,,,,,,,,,,,,,,,,,,,,,,,,,,,,,,,,,,,,,,,,,,,,,,,,,,
1782733235,1782733235,70,0,4252.179688,4298.974121,4350.384766,4385.256348,4299.230957,4076.025635,4309.230957,4306.794922,4133.333496,4218.205078,4463.205078,4319.743652,4224.743652,4454.102539,0,2,44,,,,0,4,0,2,0,0,0,4,4,0,0,4,0,0,4,0,,,,,,,,,,,,,,,,,,,,,,,,,,,,,,,,,,,,,,,,,,,,,,,,,,,,,,,,,,,
1782733235,1782733235,71,0,4251.922852,4298.974121,4349.487305,4380.256348,4301.025879,4077.179443,4315.769043,4307.05127,4135.641113,4214.743652,4470.641113,4319.871582,4222.436035,4456.282227,0,2,44,,,,0,4,0,2,0,0,0,4,4,0,0,4,0,0,4,0,,,,,,,,,,,,,,,,,,,,,,,,,,,,,,,,,,,,,,,,,,,,,,,,,,,,,,,,,,,
1782733235,1782733235,72,0,4250,4298.974121,4347.436035,4374.615234,4302.820313,4076.025635,4312.307617,4300.897461,4136.666504,4211.282227,4462.820313,4318.846191,4220,4451.025879,0,2,44,,,,0,4,0,2,0,0,0,4,4,0,0,4,0,0,4,0,,,,,,,,,,,,,,,,,,,,,,,,,,,,,,,,,,,,,,,,,,,,,,,,9,0,0.160066,0.351196,-0.707275,-0.592285,-0.166036,0.961909,-0.268221,-65.165024,-17.481928,-5.077066
1782733235,1782733235,73,0,4248.077148,4298.974121,4345.512695,4371.922852,4303.589844,4074.487061,4301.794922,4290.897461,4136.410156,4209.615234,4445.769043,4317.692383,4217.94873,4439.615234,0,2,44,,,,0,4,0,2,0,0,0,4,4,0,0,4,0,0,4,0,,,,,,,,,,,,,,,,,,,,,,,,,,,,,,,,,,,,,,,,,,,,,,,,,,,,,,,,,,,
1782733235,1782733235,74,0,4248.589844,4299.102539,4345.256348,4373.846191,4303.589844,4074.615479,4291.666504,4282.307617,4135.256348,4210.769043,4430.384766,4317.820313,4217.179688,4427.692383,0,2,44,,,,0,4,0,2,0,0,0,4,4,0,0,4,0,0,4,0,,,,,,,,,,,,,,,,,,,,,,,,,,,,,,,,,,,,,,,,,,,,,,,,,,,,,,,,,,,
1782733235,1782733235,75,0,4252.563965,4299.102539,4347.436035,4378.077148,4302.94873,4076.410156,4287.307617,4279.358887,4133.717773,4212.94873,4425.256348,4319.358887,4218.205078,4420.897461,0,2,44,,,,0,4,0,2,0,0,0,4,4,0,0,4,0,0,4,0,,,,,,,,,,,,,,,,,,,,,,,,,,,,,,,,,,,,,,,,,,,,,,,,,,,,,,,,,,,
1782733235,1782733235,76,0,4258.461426,4298.974121,4351.153809,4380.769043,4302.307617,4078.589844,4289.102539,4282.307617,4132.179688,4214.230957,4430.897461,4320.897461,4220.769043,4421.025879,0,2,44,,,,0,4,0,2,0,0,0,4,4,0,0,4,0,0,4,0,,,,,,,,,,,,,,,,,,,,,,,,,,,,,,,,,,,,,,,,,,,,,,,,,,,,,,,,,,,
1782733235,1782733235,77,0,4263.461426,4298.589844,4354.230957,4379.615234,4301.794922,4079.358887,4293.333496,4288.077148,4130.769043,4213.717773,4440.384766,4320.897461,4222.820313,4425.641113,0,2,44,,,,0,4,0,2,0,0,0,4,4,0,0,4,0,0,4,0,,,,,,,,,,,,,,,,,,,,,,,,,,,,,,,,,,,,,,,,,,,,,,,,,,,,,,,,,,,
1782733235,1782733235,78,0,4264.615234,4298.205078,4355.256348,4375.769043,4301.282227,4078.333252,4296.410156,4292.563965,4129.743652,4211.666504,4446.666504,4319.102539,4222.94873,4431.922852,0,2,44,,,,0,4,0,2,0,0,0,4,4,0,0,4,0,0,4,0,,,,,,,,,,,,,,,,,,,,,,,,,,,,,,,,,,,,,,,,,,,,,,,,,,,,,,,,,,,
1782733235,1782733235,79,0,4261.410156,4298.717773,4354.358887,4372.563965,4300.641113,4076.281982,4296.282227,4293.974121,4129.230957,4209.487305,4446.794922,4317.179688,4221.282227,4437.692383,0,2,44,,,,0,4,0,2,0,0,0,4,4,0,0,4,0,0,4,0,,,,,,,,,,,,,,,,,,,,,,,,,,,,,,,,,,,,,,,,,,,,,,,,,,,,,,,,,,,
1782733235,1782733235,80,0,4256.282227,4299.615234,4352.563965,4372.05127,4299.743652,4074.743652,4294.358887,4293.974121,4129.358887,4208.461426,4442.94873,4316.410156,4219.871582,4442.563965,0,2,44,,,,0,4,0,2,0,0,0,4,4,0,0,4,0,0,4,0,,,,,,,,,,,,,,,,,,,,,,,,,,,,,,,,,,,,,,,,,,,,,,,,10,0,0.160304,0.351685,-0.707336,-0.591858,-0.187523,0.940422,-0.248199,-64.965187,-17.6504,-5.01936
1782733235,1782733235,81,0,4251.794922,4300,4351.025879,4373.846191,4299.358887,4074.743652,4293.077148,4295.256348,4129.615234,4209.230957,4440,4317.307617,4220.128418,4445.512695,0,2,44,,,,0,4,0,2,0,0,0,4,4,0,0,4,0,0,4,0,,,,,,,,,,,,,,,,,,,,,,,,,,,,,,,,,,,,,,,,,,,,,,,,,,,,,,,,,,,
1782733235,1782733235,82,0,4249.487305,4299.102539,4350.384766,4375.384766,4300,4076.666748,4293.717773,4298.717773,4129.358887,4210.641113,4442.307617,4318.589844,4222.05127,4444.743652,0,2,44,,,,0,4,0,2,0,0,0,4,4,0,0,4,0,0,4,0,,,,,,,,,,,,,,,,,,,,,,,,,,,,,,,,,,,,,,,,,,,,,,,,,,,,,,,,,,,
1782733235,1782733235,83,0,4248.974121,4297.563965,4350.256348,4374.487305,4301.282227,4079.743652,4295.256348,4302.436035,4128.461426,4211.538574,4450.512695,4318.717773,4224.358887,4439.102539,0,2,44,,,,0,4,0,2,0,0,0,4,4,0,0,4,0,0,4,0,,,,,,,,,,,,,,,,,,,,,,,,,,,,,,,,,,,,,,,,,,,,,,,,,,,,,,,,,,,
1782733235,1782733235,84,0,4249.102539,4296.666504,4349.743652,4370.512695,4302.179688,4082.564209,4296.666504,4303.589844,4127.307617,4211.666504,4460.769043,4317.307617,4226.025879,4430.769043,0,2,44,,,,0,4,0,2,0,0,0,4,4,0,0,4,0,0,4,0,,,,,,,,,,,,,,,,,,,,,,,,,,,,,,,,,,,,,,,,,,,,,,,,,,,,,,,,,,,
1782733235,1782733235,85,0,4248.333496,4297.307617,4348.717773,4365.128418,4301.538574,4084.102539,4298.461426,4302.307617,4127.307617,4211.922852,4466.025879,4315.641113,4226.666504,4424.102539,0,2,44,,,,0,4,0,2,0,0,0,4,4,0,0,4,0,0,4,0,,,,,,,,,,,,,,,,,,,,,,,,,,,,,,,,,,,,,,,,,,,,,,,,,,,,,,,,,,,
1782733235,1782733235,86,0,4246.538574,4299.358887,4347.179688,4360.897461,4299.487305,4083.974365,4301.922852,4301.282227,4128.589844,4213.077148,4462.436035,4315.128418,4226.666504,4422.563965,0,2,44,,,,0,4,0,2,0,0,0,4,4,0,0,4,0,0,4,0,,,,,,,,,,,,,,,,,,,,,,,,,,,,,,,,,,,,,,,,,,,,,,,,,,,,,,,,,,,
1782733235,1782733235,87,0,4244.358887,4302.05127,4345.769043,4359.743652,4297.307617,4083.205078,4306.153809,4302.94873,4130.256348,4215,4452.692383,4316.025879,4226.794922,4425,0,2,44,,,,0,4,0,2,0,0,0,4,4,0,0,4,0,0,4,0,,,,,,,,,,,,,,,,,,,,,,,,,,,,,,,,,,,,,,,,,,,,,,,,,,,,,,,,,,,
1782733235,1782733235,88,0,4243.461426,4304.230957,4345.384766,4361.794922,4296.666504,4082.435791,4308.461426,4307.05127,4131.410156,4216.666504,4443.077148,4317.307617,4227.820313,4427.307617,0,2,44,,,,0,4,0,2,0,0,0,4,4,0,0,4,0,0,4,0,,,,,,,,,,,,,,,,,,,,,,,,,,,,,,,,,,,,,,,,,,,,,,,,11,0,0.16022,0.352051,-0.707275,-0.591736,-0.186058,0.947259,-0.249176,-65.035339,-17.702028,-5.117424
1782733235,1782733235,89,0,4245.128418,4305.512695,4346.410156,4365.256348,4297.692383,4081.666748,4306.410156,4311.153809,4131.410156,4217.436035,4438.846191,4317.436035,4230.256348,4427.179688,0,2,44,,,,0,4,0,2,0,0,0,4,4,0,0,4,0,0,4,0,,,,,,,,,,,,,,,,,,,,,,,,,,,,,,,,,,,,,,,,,,,,,,,,,,,,,,,,,,,
1782733235,1782733235,90,0,4249.487305,4305.128418,4348.589844,4367.692383,4299.615234,4080.641113,4301.025879,4312.820313,4130.512695,4216.922852,4440.128418,4316.282227,4233.333496,4426.282227,0,2,44,,,,0,4,0,2,0,0,0,4,4,0,0,4,0,0,4,0,,,,,,,,,,,,,,,,,,,,,,,,,,,,,,,,,,,,,,,,,,,,,,,,,,,,,,,,,,,
1782733235,1782733235,91,0,4254.615234,4302.94873,4350.897461,4367.692383,4300.769043,4079.358887,4295.128418,4311.922852,4129.487305,4215.256348,4443.589844,4315,4236.153809,4428.589844,0,2,44,,,,0,4,0,2,0,0,0,4,4,0,0,4,0,0,4,0,,,,,,,,,,,,,,,,,,,,,,,,,,,,,,,,,,,,,,,,,,,,,,,,,,,,,,,,,,,
1782733235,1782733235,92,0,4258.974121,4299.871582,4352.05127,4365.897461,4300.512695,4078.461426,4291.410156,4309.871582,4129.102539,4213.333496,4445.897461,4315.128418,4238.077148,4435.256348,0,2,44,,,,0,4,0,2,0,0,0,4,4,0,0,4,0,0,4,0,,,,,,,,,,,,,,,,,,,,,,,,,,,,,,,,,,,,,,,,,,,,,,,,,,,,,,,,,,,
1782733235,1782733235,93,0,4261.282227,4297.692383,4351.794922,4363.974121,4299.102539,4078.461426,4290.769043,4308.717773,4129.743652,4212.05127,4447.05127,4317.307617,4239.743652,4443.461426,0,2,44,,,,0,4,0,2,0,0,0,4,4,0,0,4,0,0,4,0,,,,,,,,,,,,,,,,,,,,,,,,,,,,,,,,,,,,,,,,,,,,,,,,,,,,,,,,,,,
1782733235,1782733235,94,0,4261.922852,4298.077148,4350.641113,4363.077148,4298.077148,4079.743652,4292.307617,4308.846191,4131.153809,4211.666504,4451.153809,4320.256348,4242.692383,4447.94873,0,2,44,,,,0,4,0,2,0,0,0,4,4,0,0,4,0,0,4,0,,,,,,,,,,,,,,,,,,,,,,,,,,,,,,,,,,,,,,,,,,,,,,,,,,,,,,,,,,,
1782733235,1782733235,95,0,4261.794922,4300.769043,4349.358887,4363.333496,4298.077148,4082.307617,4294.871582,4309.358887,4132.692383,4211.666504,4460.641113,4322.94873,4247.179688,4445.897461,0,2,44,,,,0,4,0,2,0,0,0,4,4,0,0,4,0,0,4,0,,,,,,,,,,,,,,,,,,,,,,,,,,,,,,,,,,,,,,,,,,,,,,,,,,,,,,,,,,,
1782733235,1782733235,96,0,4261.538574,4303.846191,4348.461426,4364.102539,4299.230957,4085.512939,4297.179688,4308.589844,4133.846191,4211.794922,4472.307617,4323.717773,4251.410156,4438.717773,0,2,44,,,,0,4,0,2,0,0,0,4,4,0,0,4,0,0,4,0,,,,,,,,,,,,,,,,,,,,,,,,,,,,,,,,,,,,,,,,,,,,,,,,12,0,0.160403,0.352722,-0.706848,-0.591797,-0.193871,0.962398,-0.259919,-65.098473,-17.698492,-5.205681
1782733235,1782733235,97,0,4261.922852,4305,4347.820313,4364.615234,4300.769043,4087.820557,4298.333496,4305.897461,4134.358887,4212.05127,4479.358887,4322.436035,4253.589844,4431.666504,0,2,44,,,,0,4,0,2,0,0,0,4,4,0,0,4,0,0,4,0,,,,,,,,,,,,,,,,,,,,,,,,,,,,,,,,,,,,,,,,,,,,,,,,,,,,,,,,,,,
1782733235,1782733235,98,0,4263.589844,4303.974121,4347.563965,4364.358887,4301.922852,4088.333252,4297.563965,4303.717773,4134.487305,4212.307617,4478.461426,4319.358887,4253.077148,4431.153809,0,2,44,,,,0,4,0,2,0,0,0,4,4,0,0,4,0,0,4,0,,,,,,,,,,,,,,,,,,,,,,,,,,,,,,,,,,,,,,,,,,,,,,,,,,,,,,,,,,,
1782733235,1782733235,99,0,4266.794922,4302.05127,4348.589844,4363.077148,4302.307617,4086.794922,4295.128418,4305.512695,4135.128418,4212.692383,4473.205078,4316.025879,4250.897461,4440.128418,0,2,44,,,,0,4,0,2,0,0,0,4,4,0,0,4,0,0,4,0,,,,,,,,,,,,,,,,,,,,,,,,,,,,,,,,,,,,,,,,,,,,,,,,,,,,,,,,,,,
1782733235,1782733235,100,0,4270.769043,4300.641113,4350.769043,4361.666504,4302.307617,4084.615479,4292.692383,4313.077148,4136.410156,4212.820313,4470,4313.974121,4248.589844,4455.128418,0,2,44,,,,0,4,0,2,0,0,0,4,4,0,0,4,0,0,4,0,,,,,,,,,,,,,,,,,,,,,,,,,,,,,,,,,,,,,,,,,,,,,,,,,,,,,,,,,,,
1782733235,1782733235,101,0,4274.102539,4300.256348,4353.589844,4361.282227,4302.179688,4083.718018,4292.179688,4323.077148,4137.820313,4212.692383,4472.563965,4313.717773,4247.692383,4467.563965,0,2,44,,,,0,4,0,2,0,0,0,4,4,0,0,4,0,0,4,0,,,,,,,,,,,,,,,,,,,,,,,,,,,,,,,,,,,,,,,,,,,,,,,,,,,,,,,,,,,
1782733235,1782733235,102,0,4276.025879,4300.512695,4356.025879,4361.922852,4302.307617,4084.871826,4294.871582,4328.461426,4138.846191,4212.05127,4477.94873,4314.743652,4248.333496,4469.871582,0,2,44,,,,0,4,0,2,0,0,0,4,4,0,0,4,0,0,4,0,,,,,,,,,,,,,,,,,,,,,,,,,,,,,,,,,,,,,,,,,,,,,,,,,,,,,,,,,,,
1782733235,1782733235,103,0,4276.794922,4300.769043,4357.692383,4362.692383,4301.922852,4087.820557,4300.128418,4324.358887,4139.102539,4211.282227,4479.102539,4315.641113,4249.615234,4460.384766,0,2,44,,,,0,4,0,2,0,0,0,4,4,0,0,4,0,0,4,0,,,,,,,,,,,,,,,,,,,,,,,,,,,,,,,,,,,,,,,,,,,,,,,,,,,,,,,,,,,
1782733235,1782733235,104,0,4277.307617,4300.769043,4358.717773,4362.692383,4300.769043,4090.384521,4305.897461,4311.666504,4139.102539,4211.153809,4470.512695,4315.897461,4250.128418,4444.743652,0,2,44,,,,0,4,0,2,0,0,0,4,4,0,0,4,0,0,4,0,,,,,,,,,,,,,,,,,,,,,,,,,,,,,,,,,,,,,,,,,,,,,,,,13,0,0.160401,0.353394,-0.70636,-0.59198,-0.189965,0.944329,-0.249176,-65.188622,-17.561975,-5.218447
1782733235,1782733235,105,0,4278.205078,4300.256348,4359.102539,4361.666504,4299.102539,4091.153809,4309.487305,4297.820313,4139.102539,4212.05127,4453.077148,4315.641113,4248.846191,4431.922852,0,2,44,,,,0,4,0,2,0,0,0,4,4,0,0,4,0,0,4,0,,,,,,,,,,,,,,,,,,,,,,,,,,,,,,,,,,,,,,,,,,,,,,,,,,,,,,,,,,,
1782733235,1782733235,106,0,4279.358887,4299.615234,4359.487305,4360.769043,4298.205078,4090,4309.102539,4291.410156,4139.615234,4213.333496,4435.256348,4316.025879,4246.666504,4427.692383,0,2,44,,,,0,4,0,2,0,0,0,4,4,0,0,4,0,0,4,0,,,,,,,,,,,,,,,,,,,,,,,,,,,,,,,,,,,,,,,,,,,,,,,,,,,,,,,,,,,
1782733235,1782733235,107,0,4280.256348,4299.743652,4359.743652,4360.641113,4298.846191,4087.820557,4305.128418,4295.897461,4140.256348,4214.102539,4427.179688,4317.307617,4244.230957,4431.666504,0,2,44,,,,0,4,0,2,0,0,0,4,4,0,0,4,0,0,4,0,,,,,,,,,,,,,,,,,,,,,,,,,,,,,,,,,,,,,,,,,,,,,,,,,,,,,,,,,,,
1782733235,1782733235,108,0,4280.769043,4301.153809,4360.128418,4361.538574,4300.897461,4086.410156,4300.128418,4306.794922,4140.384766,4213.846191,4433.974121,4319.230957,4241.922852,4438.717773,0,2,44,,,,0,4,0,2,0,0,0,4,4,0,0,4,0,0,4,0,,,,,,,,,,,,,,,,,,,,,,,,,,,,,,,,,,,,,,,,,,,,,,,,,,,,,,,,,,,
1782733235,1782733235,109,0,4282.05127,4303.077148,4361.025879,4362.563965,4302.94873,4086.923096,4296.922852,4316.153809,4139.487305,4212.820313,4452.563965,4320.769043,4240,4444.230957,0,2,44,,,,0,4,0,2,0,0,0,4,4,0,0,4,0,0,4,0,,,,,,,,,,,,,,,,,,,,,,,,,,,,,,,,,,,,,,,,,,,,,,,,,,,,,,,,,,,
1782733235,1782733235,110,0,4286.282227,4304.358887,4362.94873,4363.077148,4304.102539,4089.358887,4296.666504,4318.589844,4137.563965,4211.922852,4472.94873,4321.282227,4238.846191,4447.05127,0,2,44,,,,0,4,0,2,0,0,0,4,4,0,0,4,0,0,4,0,,,,,,,,,,,,,,,,,,,,,,,,,,,,,,,,,,,,,,,,,,,,,,,,,,,,,,,,,,,
1782733235,1782733235,111,0,4294.358887,4304.358887,4365.897461,4362.692383,4303.717773,4092.307617,4297.563965,4314.871582,4136.025879,4211.410156,4485.512695,4320.897461,4239.102539,4449.358887,0,2,44,,,,0,4,0,2,0,0,0,4,4,0,0,4,0,0,4,0,,,,,,,,,,,,,,,,,,,,,,,,,,,,,,,,,,,,,,,,,,,,,,,,,,,,,,,,,,,
1782733235,1782733235,112,0,4303.846191,4303.077148,4369.871582,4361.538574,4302.179688,4094.358887,4297.436035,4310,4136.025879,4211.794922,4486.025879,4320.641113,4240.512695,4453.077148,0,2,44,,,,0,4,0,2,0,0,0,4,4,0,0,4,0,0,4,0,,,,,,,,,,,,,,,,,,,,,,,,,,,,,,,,,,,,,,,,,,,,,,,,14,0,0.160401,0.353516,-0.706299,-0.59198,-0.18557,0.950678,-0.261873,-65.219765,-17.605778,-5.279935
1782733235,1782733235,113,0,4310.384766,4301.794922,4373.077148,4360.641113,4300.128418,4094.871826,4296.410156,4308.974121,4138.077148,4212.692383,4477.436035,4321.153809,4242.692383,4457.563965,0,2,44,,,,0,4,0,2,0,0,0,4,4,0,0,4,0,0,4,0,,,,,,,,,,,,,,,,,,,,,,,,,,,,,,,,,,,,,,,,,,,,,,,,,,,,,,,,,,,
1782733235,1782733235,114,0,4310.512695,4301.410156,4374.102539,4360.641113,4298.846191,4094.615479,4296.794922,4313.205078,4141.282227,4213.717773,4466.153809,4322.94873,4244.230957,4461.153809,0,2,44,,,,0,4,0,2,0,0,0,4,4,0,0,4,0,0,4,0,1,0,0,0,1,0,0,0,1,1,0,0,1,0,0,3,,,,,,,,,,,,,,,,,,,,,,,,,,,,,,,,,,,,,,,,,,,
1782733235,1782733235,115,0,4305.128418,4301.922852,4372.436035,4361.538574,4298.974121,4094.743652,4299.743652,4320.256348,4143.846191,4213.717773,4458.846191,4325.128418,4244.102539,4462.563965,0,2,44,,,,0,4,0,2,0,0,0,4,4,0,0,4,0,0,4,0,,,,,,,,,,,,,,,,,,,,,,,,,,,,,,,,,,,,,,,,,,,,,,,,,,,,,,,,,,,
1782733235,1782733235,116,0,4299.615234,4302.307617,4369.358887,4362.692383,4300.256348,4095.641113,4303.589844,4326.153809,4144.871582,4212.820313,4459.871582,4326.922852,4242.563965,4463.077148,0,2,44,,,,0,4,0,2,0,0,0,4,4,0,0,4,0,0,4,0,,,,,,,,,,,,,,,,,,,,,,,,,,,,,,,,,,,,,,,,,,,,,,,,,,,,,,,,,,,
1782733235,1782733235,117,0,4299.230957,4301.922852,4367.307617,4363.205078,4301.794922,4096.538574,4305,4327.563965,4144.487305,4211.666504,4469.871582,4327.179688,4241.153809,4465,0,2,44,,,,0,4,0,2,0,0,0,4,4,0,0,4,0,0,4,0,,,,,,,,,,,,,,,,,,,,,,,,,,,,,,,,,,,,,,,,,,,,,,,,,,,,,,,,,,,
1782733235,1782733235,118,0,4304.102539,4300.769043,4367.436035,4362.820313,4302.563965,4096.922852,4302.820313,4324.487305,4144.102539,4211.282227,4484.871582,4326.153809,4241.666504,4468.846191,0,2,44,,,,0,4,0,2,0,0,0,4,4,0,0,4,0,0,4,0,,,,,,,,,,,,,,,,,,,,,,,,,,,,,,,,,,,,,,,,,,,,,,,,,,,,,,,,,,,
1782733235,1782733235,119,0,4309.871582,4299.487305,4368.974121,4362.436035,4302.307617,4096.794922,4298.717773,4318.974121,4144.358887,4211.922852,4498.589844,4325.256348,4244.871582,4471.922852,0,2,44,,,,0,4,0,2,0,0,0,4,4,0,0,4,0,0,4,0,,,,,,,,,,,,,,,,,,,,,,,,,,,,,,,,,,,,,,,,,,,,,,,,,,,,,,,,,,,
1782733235,1782733235,120,0,4311.538574,4299.230957,4370.128418,4362.436035,4301.282227,4096.794922,4296.153809,4313.717773,4145.128418,4212.692383,4506.025879,4325.384766,4249.230957,4470.128418,0,2,44,,,,0,4,0,2,0,0,0,4,4,0,0,4,0,0,4,0,,,,,,,,,,,,,,,,,,,,,,,,,,,,,,,,,,,,,,,,,,,,,,,,15,0,0.160266,0.353577,-0.706299,-0.59198,-0.195825,0.941399,-0.267245,-65.231117,-17.495201,-5.385275
1782733235,1782733235,121,0,4308.077148,4300.128418,4370,4362.563965,4300.128418,4098.077148,4297.05127,4310.769043,4145.384766,4212.563965,4504.615234,4326.410156,4252.179688,4461.538574,0,2,44,,,,0,4,0,2,0,0,0,4,4,0,0,4,0,0,4,0,,,,,,,,,,,,,,,,,,,,,,,,,,,,,,,,,,,,,,,,,,,,,,,,,,,,,,,,,,,
1782733235,1782733235,122,0,4302.307617,4301.538574,4369.358887,4362.436035,4299.615234,4100.512695,4300.769043,4310.512695,4144.615234,4210.897461,4494.487305,4327.563965,4252.05127,4448.846191,0,2,44,,,,0,4,0,2,0,0,0,4,4,0,0,4,0,0,4,0,,,,,,,,,,,,,,,,,,,,,,,,,,,,,,,,,,,,,,,,,,,,,,,,,,,,,,,,,,,
1782733235,1782733235,123,0,4297.820313,4302.563965,4369.102539,4362.05127,4299.743652,4102.94873,4304.358887,4311.794922,4143.077148,4208.333496,4478.077148,4327.05127,4249.102539,4438.589844,0,2,44,,,,0,4,0,2,0,0,0,4,4,0,0,4,0,0,4,0,,,,,,,,,,,,,,,,,,,,,,,,,,,,,,,,,,,,,,,,,,,,,,,,,,,,,,,,,,,
1782733235,1782733235,124,0,4296.153809,4302.563965,4369.358887,4361.666504,4299.743652,4104.615234,4305,4311.794922,4141.538574,4205.769043,4460.384766,4324.487305,4246.153809,4435.897461,0,2,44,,,,0,4,0,2,0,0,0,4,4,0,0,4,0,0,4,0,,,,,,,,,,,,,,,,,,,,,,,,,,,,,,,,,,,,,,,,,,,,,,,,,,,,,,,,,,,
1782733235,1782733235,125,0,4296.025879,4302.179688,4369.743652,4361.922852,4299.487305,4105.256348,4301.538574,4308.974121,4140.641113,4204.487305,4446.282227,4320.512695,4245.384766,4440.384766,0,2,44,,,,0,4,0,2,0,0,0,4,4,0,0,4,0,0,4,0,,,,,,,,,,,,,,,,,,,,,,,,,,,,,,,,,,,,,,,,,,,,,,,,,,,,,,,,,,,
1782733235,1782733235,126,0,4294.615234,4302.307617,4369.358887,4362.692383,4299.358887,4105.256348,4295.256348,4303.333496,4140.769043,4205.641113,4437.563965,4316.922852,4247.05127,4446.538574,0,2,44,,,,0,4,0,2,0,0,0,4,4,0,0,4,0,0,4,0,,,,,,,,,,,,,,,,,,,,,,,,,,,,,,,,,,,,,,,,,,,,,,,,,,,,,,,,,,,
1782733235,1782733235,127,0,4289.487305,4302.692383,4368.205078,4362.820313,4300.641113,4105.384766,4290.128418,4296.922852,4141.538574,4209.230957,4432.692383,4315.512695,4249.102539,4448.333496,0,2,44,,,,0,4,0,2,0,0,0,4,4,0,0,4,0,0,4,0,,,,,,,,,,,,,,,,,,,,,,,,,,,,,,,,,,,,,,,,,,,,,,,,,,,,,,,,,,,
1782733235,1782733235,128,0,4281.538574,4302.692383,4366.410156,4361.538574,4302.94873,4106.153809,4289.358887,4292.179688,4142.436035,4213.717773,4430.512695,4316.410156,4249.102539,4444.230957,1030,2,44,,,,0,4,0,2,0,0,0,4,4,0,0,4,0,0,4,0,,,,,,,,,,,,,,,,,,,,,,,,,,,,,,,,,,,,,,,,,,,,,,,,16,0,0.160174,0.353882,-0.706116,-0.592041,-0.197778,0.937004,-0.259431,-65.208008,-17.34568,-5.280081
1782733235,1782733235,129,0,4274.487305,4301.794922,4365.256348,4359.102539,4304.871582,4107.179688,4293.589844,4291.410156,4143.205078,4216.666504,4432.820313,4318.461426,4247.179688,4437.436035,0,2,44,,,,0,4,0,2,0,0,0,4,4,0,0,4,0,0,4,0,,,,,,,,,,,,,,,,,,,,,,,,,,,,,,,,,,,,,,,,,,,,,,,,,,,,,,,,,,,
1782733235,1782733235,130,0,4272.307617,4300.384766,4366.025879,4357.307617,4304.743652,4108.077148,4300.128418,4294.487305,4144.102539,4216.153809,4442.692383,4319.743652,4245.128418,4433.333496,2459,2,44,,,,0,4,0,2,0,0,0,4,4,0,0,4,0,0,4,0,,,,,,,,,,,,,,,,,,,,,,,,,,,,,,,,,,,,,,,,,,,,,,,,,,,,,,,,,,,
1782733235,1782733235,131,0,4275.384766,4299.358887,4369.230957,4357.179688,4302.179688,4108.974121,4305.897461,4298.974121,4145.512695,4213.846191,4461.538574,4319.487305,4245,4435,0,2,44,,,,0,4,0,2,0,0,0,4,4,0,0,4,0,0,4,0,,,,,,,,,,,,,,,,,,,,,,,,,,,,,,,,,,,,,,,,,,,,,,,,,,,,,,,,,,,
1782733235,1782733235,132,0,4280.641113,4299.487305,4372.94873,4358.333496,4298.205078,4110.384766,4309.871582,4301.666504,4146.666504,4212.436035,4485.769043,4318.717773,4247.05127,4441.666504,0,2,44,,,,0,4,0,2,0,0,0,4,4,0,0,4,0,0,4,0,,,,,,,,,,,,,,,,,,,,,,,,,,,,,,,,,,,,,,,,,,,,,,,,,,,,,,,,,,,
1782733235,1782733235,133,0,4284.358887,4300.641113,4374.871582,4359.102539,4295.128418,4112.94873,4313.205078,4301.410156,4146.922852,4213.589844,4507.436035,4318.589844,4249.871582,4450.769043,0,2,44,,,,0,4,0,2,0,0,0,4,4,0,0,4,0,0,4,0,,,,,,,,,,,,,,,,,,,,,,,,,,,,,,,,,,,,,,,,,,,,,,,,,,,,,,,,,,,
1782733235,1782733235,134,0,4284.743652,4301.922852,4373.589844,4358.846191,4294.743652,4115.769043,4316.666504,4300,4146.153809,4216.025879,4518.205078,4319.358887,4251.922852,4460,1977,2,44,,,,0,4,0,2,0,0,0,4,4,0,0,4,0,0,4,0,,,,,,,,,,,,,,,,,,,,,,,,,,,,,,,,,,,,,,,,,,,,,,,,,,,,,,,,,,,
1782733235,1782733235,135,0,4282.820313,4302.563965,4370.384766,4357.563965,4297.05127,4117.94873,4319.743652,4299.743652,4145.256348,4217.563965,4514.358887,4320.512695,4252.436035,4467.94873,1947,2,44,,,,0,4,0,2,0,0,0,4,4,0,0,4,0,0,4,0,,,,,,,,,,,,,,,,,,,,,,,,,,,,,,,,,,,,,,,,,,,,,,,,,,,,,,,,,,,
1782733235,1782733235,136,0,4280.641113,4302.820313,4367.436035,4355.769043,4300.384766,4118.846191,4320.512695,4301.538574,4145.384766,4217.05127,4499.743652,4321.538574,4252.179688,4473.461426,0,2,44,,,,0,4,0,2,0,0,0,4,4,0,0,4,0,0,4,0,,,,,,,,,,,,,,,,,,,,,,,,,,,,,,,,,,,,,,,,,,,,,,,,17,0,0.160752,0.354675,-0.705688,-0.591919,-0.195825,0.941887,-0.251129,-65.253876,-17.344446,-5.185406
1782733235,1782733235,137,0,4280,4302.692383,4366.666504,4354.102539,4302.692383,4118.974121,4318.589844,4304.102539,4146.794922,4215.897461,4482.94873,4322.179688,4252.307617,4475.512695,0,2,44,,,,0,4,0,2,0,0,0,4,4,0,0,4,0,0,4,0,,,,,,,,,,,,,,,,,,,,,,,,,,,,,,,,,,,,,,,,,,,,,,,,,,,,,,,,,,,
1782733235,1782733235,138,0,4281.922852,4302.436035,4368.589844,4352.94873,4302.94873,4119.230957,4315.128418,4305.384766,4148.717773,4215.897461,4472.179688,4322.563965,4253.333496,4474.230957,0,2,44,,,,0,4,0,2,0,0,0,4,4,0,0,4,0,0,4,0,,,,,,,,,,,,,,,,,,,,,,,,,,,,,,,,,,,,,,,,,,,,,,,,,,,,,,,,,,,
1782733235,1782733235,139,0,4286.025879,4301.922852,4372.179688,4352.692383,4301.538574,4119.871582,4312.563965,4304.743652,4150,4216.794922,4471.282227,4323.333496,4254.102539,4470.128418,2857,2,44,,,,0,4,0,2,0,0,0,4,4,0,0,4,0,0,4,0,,,,,,,,,,,,,,,,,,,,,,,,,,,,,,,,,,,,,,,,,,,,,,,,,,,,,,,,,,,
1782733235,1782733235,140,0,4291.666504,4301.282227,4376.153809,4353.461426,4299.487305,4120.769043,4311.538574,4303.589844,4150.512695,4217.179688,4477.307617,4324.102539,4253.205078,4464.743652,2925,2,44,,,,0,4,0,2,0,0,0,4,4,0,0,4,0,0,4,0,,,,,,,,,,,,,,,,,,,,,,,,,,,,,,,,,,,,,,,,,,,,,,,,,,,,,,,,,,,
1782733235,1782733235,141,0,4297.563965,4300.897461,4379.487305,4354.871582,4298.077148,4121.538574,4311.410156,4304.615234,4151.410156,4216.153809,4483.846191,4324.743652,4250.256348,4459.358887,0,2,44,,,,0,4,0,2,0,0,0,4,4,0,0,4,0,0,4,0,,,,,,,,,,,,,,,,,,,,,,,,,,,,,,,,,,,,,,,,,,,,,,,,,,,,,,,,,,,
1782733235,1782733235,142,0,4302.820313,4301.025879,4381.410156,4355.897461,4298.461426,4121.922852,4309.871582,4309.358887,4154.102539,4214.615234,4487.05127,4325,4246.922852,4455.897461,0,2,44,,,,0,4,0,2,0,0,0,4,4,0,0,4,0,0,4,0,,,,,,,,,,,,,,,,,,,,,,,,,,,,,,,,,,,,,,,,,,,,,,,,,,,,,,,,,,,
1782733235,1782733235,143,0,4308.205078,4301.794922,4381.922852,4356.153809,4300.384766,4121.794922,4305.512695,4316.922852,4158.205078,4214.230957,4491.922852,4325,4245.641113,4455.641113,2857,2,44,,,,0,4,0,2,0,0,0,4,4,0,0,4,0,0,4,0,,,,,,,,,,,,,,,,,,,,,,,,,,,,,,,,,,,,,,,,,,,,,,,,,,,,,,,,,,,
1782733235,1782733235,144,0,4315.769043,4302.94873,4382.436035,4355.384766,4302.94873,4122.179688,4299.102539,4323.974121,4161.922852,4214.871582,4504.743652,4325.256348,4247.307617,4458.846191,2925,2,44,,,,0,4,0,2,0,0,0,4,4,0,0,4,0,0,4,0,,,,,,,,,,,,,,,,,,,,,,,,,,,,,,,,,,,,,,,,,,,,,,,,18,0,0.161135,0.355835,-0.705017,-0.591919,-0.184593,0.934074,-0.246246,-65.278488,-17.493334,-5.000199
1782733235,1782733235,145,0,4326.794922,4303.717773,4384.230957,4354.487305,4305.128418,4123.589844,4294.102539,4326.025879,4163.333496,4215.512695,4523.461426,4325.769043,4250.384766,4464.230957,0,2,44,,,,0,4,0,2,0,0,0,4,4,0,0,4,0,0,4,0,,,,,,,,,,,,,,,,,,,,,,,,,,,,,,,,,,,,,,,,,,,,,,,,,,,,,,,,,,,
1782733235,1782733235,146,0,4339.487305,4303.589844,4387.436035,4354.743652,4305.897461,4125.512695,4294.615234,4320,4162.307617,4215.256348,4534.871582,4326.282227,4252.436035,4469.102539,0,2,44,,,,0,4,0,2,0,0,0,4,4,0,0,4,0,0,4,0,,,,,,,,,,,,,,,,,,,,,,,,,,,,,,,,,,,,,,,,,,,,,,,,,,,,,,,,,,,
1782733235,1782733235,147,0,4349.743652,4302.94873,4390.512695,4356.410156,4305.128418,4126.666504,4301.410156,4307.563965,4160.384766,4214.871582,4526.922852,4326.922852,4252.05127,4470.512695,2857,2,44,,,,0,4,0,2,0,0,0,4,4,0,0,4,0,0,4,0,,,,,,,,,,,,,,,,,,,,,,,,,,,,,,,,,,,,,,,,,,,,,,,,,,,,,,,,,,,
1782733235,1782733235,148,0,4354.230957,4302.820313,4391.282227,4358.333496,4302.94873,4126.410156,4311.025879,4293.846191,4159.102539,4215.128418,4499.743652,4327.436035,4249.487305,4466.538574,2925,2,44,,,,0,4,0,2,0,0,0,4,4,0,0,4,0,0,4,0,,,,,,,,,,,,,,,,,,,,,,,,,,,,,,,,,,,,,,,,,,,,,,,,,,,,,,,,,,,
1782733235,1782733235,149,0,4352.563965,4303.846191,4388.974121,4358.461426,4300.897461,4125.384766,4317.307617,4284.871582,4158.717773,4216.538574,4465.897461,4327.563965,4246.794922,4457.563965,0,2,44,,,,0,4,0,2,0,0,0,4,4,0,0,4,0,0,4,0,,,,,,,,,,,,,,,,,,,,,,,,,,,,,,,,,,,,,,,,,,,,,,,,,,,,,,,,,,,
1782733235,1782733235,150,0,4346.794922,4305.512695,4384.743652,4355.641113,4300.256348,4124.743652,4316.538574,4283.333496,4158.589844,4217.820313,4440.769043,4327.563965,4245.128418,4445.769043,0,2,44,,,,0,4,0,2,0,0,0,4,4,0,0,4,0,0,4,0,,,,,,,,,,,,,,,,,,,,,,,,,,,,,,,,,,,,,,,,,,,,,,,,,,,,,,,,,,,
1782733235,1782733235,151,0,4340.512695,4306.410156,4380.769043,4350.641113,4300.897461,4125.256348,4309.358887,4287.307617,4157.692383,4218.333496,4434.358887,4327.436035,4245,4435.641113,2857,2,44,,,,0,4,0,2,0,0,0,4,4,0,0,4,0,0,4,0,,,,,,,,,,,,,,,,,,,,,,,,,,,,,,,,,,,,,,,,,,,,,,,,,,,,,,,,,,,
1782733235,1782733235,152,0,4337.436035,4305.641113,4378.461426,4346.153809,4301.922852,4126.538574,4300.128418,4292.05127,4156.410156,4217.820313,4446.538574,4326.922852,4245.641113,4430.897461,2925,2,44,,,,0,4,0,2,0,0,0,4,4,0,0,4,0,0,4,0,,,,,,,,,,,,,,,,,,,,,,,,,,,,,,,,,,,,,,,,,,,,,,,,19,0,0.161521,0.356201,-0.70459,-0.592102,-0.201685,0.957514,-0.244781,-65.350639,-17.544001,-5.000179
1782733235,1782733235,153,0,4338.974121,4303.589844,4377.94873,4344.743652,4302.179688,4127.563965,4293.589844,4294.487305,4155.769043,4216.666504,4468.589844,4326.153809,4246.282227,4432.820313,0,2,44,,,,0,4,0,2,0,0,0,4,4,0,0,4,0,0,4,0,,,,,,,,,,,,,,,,,,,,,,,,,,,,,,,,,,,,,,,,,,,,,,,,,,,,,,,,,,,
1782733235,1782733235,154,0,4342.94873,4302.179688,4378.205078,4346.794922,4301.153809,4126.922852,4291.922852,4294.102539,4156.666504,4216.153809,4487.94873,4325.256348,4246.153809,4439.743652,0,2,44,,,,0,4,0,2,0,0,0,4,4,0,0,4,0,0,4,0,,,,,,,,,,,,,,,,,,,,,,,,,,,,,,,,,,,,,,,,,,,,,,,,,,,,,,,,,,,
1782733235,1782733235,155,0,4345.384766,4303.205078,4377.820313,4349.871582,4299.743652,4124.871582,4293.974121,4292.820313,4159.102539,4216.794922,4496.922852,4324.615234,4245.769043,4448.205078,2857,2,44,,,,0,4,0,2,0,0,0,4,4,0,0,4,0,0,4,0,,,,,,,,,,,,,,,,,,,,,,,,,,,,,,,,,,,,,,,,,,,,,,,,,,,,,,,,,,,
1782733235,1782733235,156,0,4343.974121,4306.153809,4376.025879,4350.897461,4298.589844,4122.563965,4296.538574,4293.461426,4161.410156,4218.205078,4497.436035,4324.487305,4246.025879,4455.384766,2925,2,44,,,,0,4,0,2,0,0,0,4,4,0,0,4,0,0,4,0,,,,,,,,,,,,,,,,,,,,,,,,,,,,,,,,,,,,,,,,,,,,,,,,,,,,,,,,,,,
1782733235,1782733235,157,0,4340.384766,4309.230957,4373.846191,4348.974121,4297.820313,4121.282227,4296.153809,4296.794922,4162.436035,4219.230957,4498.205078,4324.743652,4248.461426,4460.128418,0,2,44,,,,0,4,0,2,0,0,0,4,4,0,0,4,0,0,4,0,,,,,,,,,,,,,,,,,,,,,,,,,,,,,,,,,,,,,,,,,,,,,,,,,,,,,,,,,,,
1782733235,1782733235,158,0,4338.589844,4310.512695,4372.692383,4346.410156,4297.692383,4121.410156,4291.538574,4301.025879,4161.794922,4218.974121,4505.512695,4324.871582,4252.436035,4462.563965,0,2,44,,,,0,4,0,2,0,0,0,4,4,0,0,4,0,0,4,0,,,,,,,,,,,,,,,,,,,,,,,,,,,,,,,,,,,,,,,,,,,,,,,,,,,,,,,,,,,
1782733235,1782733235,159,0,4341.153809,4308.974121,4373.205078,4345.384766,4298.333496,4123.077148,4284.615234,4302.436035,4160.256348,4217.820313,4516.538574,4324.615234,4256.025879,4462.820313,2857,2,44,,,,0,4,0,2,0,0,0,4,4,0,0,4,0,0,4,0,,,,,,,,,,,,,,,,,,,,,,,,,,,,,,,,,,,,,,,,,,,,,,,,,,,,,,,,,,,
1782733235,1782733235,160,0,4346.538574,4305.128418,4374.615234,4346.538574,4299.743652,4125.641113,4278.846191,4299.615234,4158.589844,4217.436035,4521.410156,4324.487305,4257.05127,4460.128418,2925,2,44,,,,0,4,0,2,0,0,0,4,4,0,0,4,0,0,4,0,,,,,,,,,,,,,,,,,,,,,,,,,,,,,,,,,,,,,,,,,,,,,,,,20,0,0.161553,0.356384,-0.704285,-0.592346,-0.199243,0.940422,-0.260408,-65.198906,-17.5396,-4.950161
1782733235,1782733235,161,0,4350.384766,4300.897461,4375.641113,4347.94873,4301.666504,4128.205078,4277.563965,4294.743652,4157.436035,4218.717773,4512.820313,4325.128418,4255.384766,4454.230957,0,2,44,,,,0,4,0,2,0,0,0,4,4,0,0,4,0,0,4,0,,,,,,,,,,,,,,,,,,,,,,,,,,,,,,,,,,,,,,,,,,,,,,,,,,,,,,,,,,,
1782733235,1782733235,162,0,4350.897461,4298.974121,4376.025879,4348.205078,4303.333496,4130.128418,4281.025879,4291.282227,4157.05127,4220.641113,4493.333496,4326.666504,4252.436035,4446.538574,0,2,44,,,,0,4,0,2,0,0,0,4,4,0,0,4,0,0,4,0,,,,,,,,,,,,,,,,,,,,,,,,,,,,,,,,,,,,,,,,,,,,,,,,,,,,,,,,,,,
1782733235,1782733235,163,0,4350,4300.256348,4376.538574,4347.05127,4303.846191,4131.153809,4286.666504,4290.512695,4157.179688,4221.410156,4473.461426,4327.820313,4250.641113,4440.641113,2857,2,44,,,,0,4,0,2,0,0,0,4,4,0,0,4,0,0,4,0,,,,,,,,,,,,,,,,,,,,,,,,,,,,,,,,,,,,,,,,,,,,,,,,,,,,,,,,,,,
1782733235,1782733235,164,0,4351.410156,4303.589844,4377.692383,4345.769043,4303.077148,4131.282227,4291.025879,4291.410156,4157.94873,4220.256348,4463.333496,4327.820313,4250.512695,4439.871582,2925,2,44,,,,0,4,0,2,0,0,0,4,4,0,0,4,0,0,4,0,,,,,,,,,,,,,,,,,,,,,,,,,,,,,,,,,,,,,,,,,,,,,,,,,,,,,,,,,,,
1782733235,1782733235,165,0,4355.256348,4306.153809,4378.461426,4345.256348,4301.922852,4130.897461,4292.05127,4291.666504,4159.230957,4218.974121,4466.410156,4326.538574,4251.538574,4443.717773,0,2,44,,,,0,4,0,2,0,0,0,4,4,0,0,4,0,0,4,0,,,,,,,,,,,,,,,,,,,,,,,,,,,,,,,,,,,,,,,,,,,,,,,,,,,,,,,,,,,
1782733235,1782733235,166,0,4358.205078,4306.410156,4376.538574,4345.384766,4301.153809,4130.256348,4290.897461,4290.384766,4160.512695,4219.230957,4478.333496,4325.384766,4252.436035,4447.94873,0,2,44,,,,0,4,0,2,0,0,0,4,4,0,0,4,0,0,4,0,,,,,,,,,,,,,,,,,,,,,,,,,,,,,,,,,,,,,,,,,,,,,,,,,,,,,,,,,,,
1782733235,1782733235,167,0,4356.410156,4304.743652,4371.538574,4345.256348,4301.538574,4130.384766,4290.769043,4288.589844,4161.025879,4221.282227,4491.025879,4325.384766,4252.436035,4447.94873,2857,2,44,,,,0,4,0,2,0,0,0,4,4,0,0,4,0,0,4,0,,,,,,,,,,,,,,,,,,,,,,,,,,,,,,,,,,,,,,,,,,,,,,,,,,,,,,,,,,,
1782733235,1782733235,168,0,4350,4303.077148,4365.641113,4344.743652,4302.436035,4132.563965,4293.461426,4287.307617,4160.769043,4222.692383,4498.077148,4326.538574,4251.538574,4442.692383,2925,2,44,,,,0,4,0,2,0,0,0,4,4,0,0,4,0,0,4,0,,,,,,,,,,,,,,,,,,,,,,,,,,,,,,,,,,,,,,,,,,,,,,,,21,0,0.16263,0.357239,-0.703552,-0.592407,-0.196801,0.932609,-0.240874,-65.279015,-17.535641,-5.155145
1782733235,1782733235,169,0,4343.589844,4302.692383,4363.077148,4343.974121,4303.205078,4136.153809,4297.179688,4286.794922,4160,4222.179688,4498.461426,4327.307617,4250.256348,4435.128418,0,2,44,,,,0,4,0,2,0,0,0,4,4,0,0,4,0,0,4,0,,,,,,,,,,,,,,,,,,,,,,,,,,,,,,,,,,,,,,,,,,,,,,,,,,,,,,,,,,,
1782733235,1782733235,170,0,4342.692383,4303.974121,4365.512695,4343.589844,4303.333496,4139.230957,4297.820313,4286.538574,4159.743652,4220.256348,4496.666504,4326.666504,4249.358887,4429.358887,0,2,44,,,,0,4,0,2,0,0,0,4,4,0,0,4,0,0,4,0,,,,,,,,,,,,,,,,,,,,,,,,,,,,,,,,,,,,,,,,,,,,,,,,,,,,,,,,,,,
1782733235,1782733235,171,0,4349.358887,4305.256348,4372.05127,4344.230957,4303.077148,4140,4292.820313,4286.410156,4160.512695,4219.615234,4497.05127,4324.743652,4248.974121,4426.538574,2857,2,44,,,,0,4,0,2,0,0,0,4,4,0,0,4,0,0,4,0,,,,,,,,,,,,,,,,,,,,,,,,,,,,,,,,,,,,,,,,,,,,,,,,,,,,,,,,,,,
1782733235,1782733235,172,0,4360.512695,4305.384766,4378.974121,4345.769043,4302.94873,4138.589844,4283.974121,4286.666504,4161.666504,4221.025879,4498.205078,4323.333496,4248.717773,4425,2925,2,44,,,,0,4,0,2,0,0,0,4,4,0,0,4,0,0,4,0,,,,,,,,,,,,,,,,,,,,,,,,,,,,,,,,,,,,,,,,,,,,,,,,,,,,,,,,,,,
1782733235,1782733235,173,0,4371.025879,4304.358887,4383.461426,4347.563965,4302.94873,4136.538574,4276.025879,4286.282227,4162.436035,4223.461426,4492.563965,4323.974121,4248.333496,4422.05127,0,2,44,,,,0,4,0,2,0,0,0,4,4,0,0,4,0,0,4,0,,,,,,,,,,,,,,,,,,,,,,,,,,,,,,,,,,,,,,,,,,,,,,,,,,,,,,,,,,,
1782733235,1782733235,174,0,4377.179688,4303.333496,4384.102539,4348.461426,4303.205078,4135.769043,4273.589844,4283.846191,4162.307617,4224.743652,4474.230957,4326.794922,4247.820313,4415.769043,0,2,44,,,,0,4,0,2,0,0,0,4,4,0,0,4,0,0,4,0,,,,,,,,,,,,,,,,,,,,,,,,,,,,,,,,,,,,,,,,,,,,,,,,,,,,,,,,,,,
1782733235,1782733235,175,0,4379.102539,4303.077148,4382.179688,4347.94873,4304.102539,4136.922852,4277.307617,4278.461426,4161.666504,4224.230957,4447.05127,4329.871582,4247.820313,4406.794922,2857,2,44,,,,0,4,0,2,0,0,0,4,4,0,0,4,0,0,4,0,,,,,,,,,,,,,,,,,,,,,,,,,,,,,,,,,,,,,,,,,,,,,,,,,,,,,,,,,,,
1782733235,1782733235,176,0,4380.128418,4303.717773,4380.128418,4345.769043,4305.769043,4139.487305,4284.358887,4271.666504,4161.153809,4222.94873,4425.256348,4331.025879,4248.717773,4397.820313,2925,2,44,,,,0,4,0,2,0,0,0,4,4,0,0,4,0,0,4,0,,,,,,,,,,,,,,,,,,,,,,,,,,,,,,,,,,,,,,,,,,,,,,,,22,0,0.162996,0.357849,-0.703003,-0.59259,-0.202173,0.967281,-0.243316,-65.434448,-17.448744,-4.939631
1782733235,1782733235,177,0,4382.820313,4304.615234,4379.871582,4342.820313,4308.077148,4141.922852,4290.512695,4266.794922,4160.897461,4221.666504,4423.461426,4329.743652,4250.384766,4391.410156,0,2,44,,,,0,4,0,2,0,0,0,4,4,0,0,4,0,0,4,0,,,,,,,,,,,,,,,,,,,,,,,,,,,,,,,,,,,,,,,,,,,,,,,,,,,,,,,,,,,
