title:Session_033_04Jul2026,start timestamp:1783161106.847600,stop timestamp:1783161177.245445,headset type:EPOCX,headset serial:E7020186,headset firmware:740,channels:98,sampling rate:eeg_256;pm_0.1;mot_32,samples:18033,version:2.2,,,,,,,,,,,,,,,,,,,,,,,,,,,,,,,,,,,,,,,,,,,,,,,,,,,,,,,,,,,,,,,,,,,,,,,,,,,,,,,,,,,,,,,,,
Timestamp,OriginalTimestamp,EEG.Counter,EEG.Interpolated,EEG.AF3,EEG.F7,EEG.F3,EEG.FC5,EEG.T7,EEG.P7,EEG.O1,EEG.O2,EEG.P8,EEG.T8,EEG.FC6,EEG.F4,EEG.F8,EEG.AF4,EEG.RawCq,EEG.Battery,EEG.BatteryPercent,MarkerIndex,MarkerType,MarkerValueInt,EEG.MarkerHardware,CQ.AF3,CQ.F7,CQ.F3,CQ.FC5,CQ.T7,CQ.P7,CQ.O1,CQ.O2,CQ.P8,CQ.T8,CQ.FC6,CQ.F4,CQ.F8,CQ.AF4,CQ.Overall,EQ.SampleRateQuality,EQ.OVERALL,EQ.AF3,EQ.F7,EQ.F3,EQ.FC5,EQ.T7,EQ.P7,EQ.O1,EQ.O2,EQ.P8,EQ.T8,EQ.FC6,EQ.F4,EQ.F8,EQ.AF4,PM.Attention.IsActive,PM.Attention.Scaled,PM.Attention.Raw,PM.Attention.Min,PM.Attention.Max,PM.Engagement.IsActive,PM.Engagement.Scaled,PM.Engagement.Raw,PM.Engagement.Min,PM.Engagement.Max,PM.Excitement.IsActive,PM.Excitement.Scaled,PM.Excitement.Raw,PM.Excitement.Min,PM.Excitement.Max,PM.LongTermExcitement,PM.Stress.IsActive,PM.Stress.Scaled,PM.Stress.Raw,PM.Stress.Min,PM.Stress.Max,PM.Relaxation.IsActive,PM.Relaxation.Scaled,PM.Relaxation.Raw,PM.Relaxation.Min,PM.Relaxation.Max,PM.Interest.IsActive,PM.Interest.Scaled,PM.Interest.Raw,PM.Interest.Min,PM.Interest.Max,MOT.CounterMems,MOT.InterpolatedMems,MOT.Q0,MOT.Q1,MOT.Q2,MOT.Q3,MOT.AccX,MOT.AccY,MOT.AccZ,MOT.MagX,MOT.MagY,MOT.MagZ
1783161107,1783161107,49,0,3891.025635,4256.410156,4262.179688,4263.717773,4066.410156,4237.179688,4126.666504,4279.871582,4042.435791,3294.102539,4446.666504,4640.128418,4101.282227,3583.718018,0,1,32,,,,0,4,0,2,4,4,2,4,0,4,4,4,4,4,4,16.666666,,,,,,,,,,,,,,,,,,,,,,,,,,,,,,,,,,,,,,,,,,,,,,,,,,,,,,,,,,,
1783161107,1783161107,50,0,3885.256348,4249.230957,4242.563965,4254.487305,4039.743652,4238.077148,4122.179688,4260.256348,4055,3284.871826,4440.512695,4626.666504,4090.897461,3566.923096,0,1,32,,,,0,4,0,2,4,4,2,4,0,4,4,4,4,4,4,16.666666,,,,,,,,,,,,,,,,,,,,,,,,,,,,,,,,,,,,,,,,,,,,,,,,,,,,,,,,,,,
1783161107,1783161107,51,0,3890.256348,4246.410156,4255.512695,4249.743652,4016.923096,4245.897461,4123.077148,4259.102539,4058.076904,3278.718018,4442.307617,4627.94873,4090.384521,3560.512939,0,1,32,,,,0,4,0,2,4,4,2,4,0,4,4,4,4,4,4,16.666666,,,,,,,,,,,,,,,,,,,,,,,,,,,,,,,,,,,,,,,,,,,,,,,,,,,,,,,,,,,
1783161107,1783161107,52,0,3903.846191,4250,4295.128418,4253.077148,4005.512939,4259.743652,4132.563965,4281.666504,4052.435791,3277.820557,4455.384766,4643.077148,4100.897461,3565,0,1,32,,,,0,4,0,2,4,4,2,4,0,4,4,4,4,4,4,16.666666,,,,,,,,,,,,,,,,,,,,,,,,,,,,,,,,,,,,,,,,,,,,,,,,,,,,,,,,,,,
1783161107,1783161107,53,0,3920.512939,4257.05127,4335.512695,4265.641113,4004.743652,4273.205078,4146.666504,4313.589844,4045.769287,3280.256348,4474.871582,4659.615234,4115.641113,3574.102539,0,1,32,,,,0,4,0,2,4,4,2,4,0,4,4,4,4,4,4,16.666666,,,,,,,,,,,,,,,,,,,,,,,,,,,,,,,,,,,,,,,,,,,,,,,,,,,,,,,,,,,
1783161107,1783161107,54,0,3933.205078,4261.922852,4351.153809,4284.102539,4005,4278.589844,4156.666504,4332.94873,4045,3281.538574,4490.897461,4663.717773,4124.230957,3579.358887,0,1,32,,,,0,4,0,2,4,4,2,4,0,4,4,4,4,4,4,16.666666,,,,,,,,,,,,,,,,,,,,,,,,,,,,,,,,,,,,,,,,,,,,,,,,,,,,,,,,,,,
1783161107,1783161107,55,0,3938.589844,4261.538574,4336.282227,4301.922852,3996.410156,4273.205078,4155.512695,4328.333496,4050.512939,3277.94873,4495.512695,4651.282227,4120.384766,3575.256348,0,1,32,,,,0,4,0,2,4,4,2,4,0,4,4,4,4,4,4,16.666666,,,,,,,,,,,,,,,,,,,,,,,,,,,,,,,,,,,,,,,,,,,,,,,,,,,,,,,,,,,
1783161107,1783161107,56,0,3938.076904,4256.410156,4308.461426,4313.205078,3977.179443,4260.384766,4142.94873,4308.333496,4056.153809,3268.846191,4488.333496,4631.922852,4106.410156,3562.820557,0,1,32,,,,0,4,0,2,4,4,2,4,0,4,4,4,4,4,4,16.666666,,,,,,,,,,,,,,,,,,,,,,,,,,,,,,,,,,,,,,,,,,,,,,,,7,0,0.598343,-0.371338,-0.574463,-0.417236,0.993774,0.078135,0.065926,-4.506127,-43.073296,24.138086
1783161107,1783161107,57,0,3935.769287,4251.282227,4292.307617,4315.512695,3955.641113,4247.692383,4126.153809,4292.307617,4056.025635,3257.179443,4474.871582,4621.282227,4090.641113,3548.205078,0,1,32,,,,0,4,0,2,4,4,2,4,0,4,4,4,4,4,4,16.666666,,,,,,,,,,,,,,,,,,,,,,,,,,,,,,,,,,,,,,,,,,,,,,,,,,,,,,,,,,,
1783161107,1783161107,58,0,3935.128174,4250.256348,4300.384766,4309.871582,3940.641113,4241.410156,4115.769043,4293.589844,4049.615479,3247.435791,4461.153809,4627.94873,4080.128174,3537.692383,0,1,32,,,,0,4,0,2,4,4,2,4,0,4,4,4,4,4,4,16.666666,,,,,,,,,,,,,,,,,,,,,,,,,,,,,,,,,,,,,,,,,,,,,,,,,,,,,,,,,,,
1783161107,1783161107,59,0,3936.538574,4253.717773,4324.102539,4300,3934.743652,4242.307617,4118.717773,4309.487305,4041.923096,3242.564209,4451.153809,4646.410156,4075.897461,3533.333252,0,1,32,,,,0,4,0,2,4,4,2,4,0,4,4,4,4,4,4,16.666666,,,,,,,,,,,,,,,,,,,,,,,,,,,,,,,,,,,,,,,,,,,,,,,,,,,,,,,,,,,
1783161107,1783161107,60,0,3939.230713,4258.333496,4343.333496,4290.641113,3932.179443,4245.897461,4134.358887,4325.897461,4037.820557,3242.435791,4448.461426,4662.820313,4074.230713,3534.102539,0,1,32,,,,0,4,0,2,4,4,2,4,0,4,4,4,4,4,4,16.666666,,,,,,,,,,,,,,,,,,,,,,,,,,,,,,,,,,,,,,,,,,,,,,,,,,,,,,,,,,,
1783161107,1783161107,61,0,3943.589844,4260.128418,4343.974121,4285.641113,3925,4247.05127,4155.512695,4331.025879,4038.846191,3244.102539,4456.794922,4666.922852,4071.153809,3538.846191,0,1,32,,,,0,4,0,2,4,4,2,4,0,4,4,4,4,4,4,16.666666,,,,,,,,,,,,,,,,,,,,,,,,,,,,,,,,,,,,,,,,,,,,,,,,,,,,,,,,,,,
1783161107,1783161107,62,0,3951.281982,4257.820313,4328.974121,4286.666504,3910.384521,4244.487305,4174.487305,4325.641113,4042.564209,3243.846191,4477.179688,4661.538574,4067.179443,3547.94873,0,1,32,,,,0,4,0,2,4,4,2,4,0,4,4,4,4,4,4,16.666666,,,,,,,,,,,,,,,,,,,,,,,,,,,,,,,,,,,,,,,,,,,,,,,,,,,,,,,,,,,
1783161107,1783161107,63,0,3962.692383,4253.846191,4314.358887,4292.179688,3891.666748,4241.794922,4187.179688,4320.641113,4045.769287,3239.102539,4503.461426,4657.94873,4064.743652,3560.897461,0,1,32,,,,0,4,0,2,4,4,2,4,0,4,4,4,4,4,4,16.666666,,,,,,,,,,,,,,,,,,,,,,,,,,,,,,,,,,,,,,,,,,,,,,,,,,,,,,,,,,,
1783161107,1783161107,64,0,3974.743652,4251.282227,4313.974121,4298.205078,3876.410156,4244.230957,4194.487305,4324.615234,4047.564209,3230.128174,4523.846191,4664.102539,4065.512939,3575.256348,0,1,32,,,,0,4,0,2,4,4,2,4,0,4,4,4,4,4,4,16.666666,,,,,,,,,,,,,,,,,,,,,,,,,,,,,,,,,,,,,,,,,,,,,,,,8,0,0.599769,-0.368103,-0.578003,-0.413147,1.059211,0.08839,0.070809,-4.455515,-43.199299,24.240946
1783161107,1783161107,65,0,3983.461426,4251.410156,4326.666504,4301.025879,3870.256348,4252.307617,4198.333496,4336.025879,4048.846191,3219.487061,4528.205078,4677.563965,4067.820557,3587.179443,0,1,32,,,,0,4,0,2,4,4,2,4,0,4,4,4,4,4,4,16.666666,,,,,,,,,,,,,,,,,,,,,,,,,,,,,,,,,,,,,,,,,,,,,,,,,,,,,,,,,,,
1783161107,1783161107,66,0,3987.692383,4252.563965,4339.102539,4300.384766,3872.820557,4260.384766,4199.230957,4345.128418,4050.128174,3210,4516.410156,4688.589844,4069.743652,3596.410156,0,1,32,,,,0,4,0,2,4,4,2,4,0,4,4,4,4,4,4,16.666666,,,,,,,,,,,,,,,,,,,,,,,,,,,,,,,,,,,,,,,,,,,,,,,,,,,,,,,,,,,
1783161107,1783161107,67,0,3989.871826,4251.666504,4338.846191,4299.743652,3878.589844,4261.666504,4197.563965,4344.615234,4051.666748,3202.94873,4498.077148,4689.487305,4071.025635,3607.820557,0,1,32,,,,0,4,0,2,4,4,2,4,0,4,4,4,4,4,4,16.666666,,,,,,,,,,,,,,,,,,,,,,,,,,,,,,,,,,,,,,,,,,,,,,,,,,,,,,,,,,,
1783161107,1783161107,68,0,3994.871826,4248.077148,4327.179688,4303.846191,3883.076904,4255.897461,4196.153809,4336.666504,4053.076904,3197.94873,4485.128418,4683.846191,4073.333252,3628.076904,0,1,32,,,,0,4,0,2,4,4,2,4,0,4,4,4,4,4,4,16.666666,,,,,,,,,,,,,,,,,,,,,,,,,,,,,,,,,,,,,,,,,,,,,,,,,,,,,,,,,,,
1783161107,1783161107,69,0,4006.538574,4244.230957,4318.589844,4314.487305,3887.05127,4250.128418,4199.615234,4331.666504,4054.615479,3194.487061,4481.794922,4683.205078,4078.076904,3658.718018,0,1,32,,,,0,4,0,2,4,4,2,4,0,4,4,4,4,4,4,16.666666,,,,,,,,,,,,,,,,,,,,,,,,,,,,,,,,,,,,,,,,,,,,,,,,,,,,,,,,,,,
1783161107,1783161107,70,0,4023.461426,4243.461426,4325.897461,4327.307617,3892.564209,4252.692383,4209.615234,4339.615234,4056.794922,3191.281982,4480.641113,4696.410156,4083.076904,3692.435791,0,1,32,,,,0,4,0,2,4,4,2,4,0,4,4,4,4,4,4,16.666666,,,,,,,,,,,,,,,,,,,,,,,,,,,,,,,,,,,,,,,,,,,,,,,,,,,,,,,,,,,
1783161107,1783161107,71,0,4038.846191,4246.538574,4347.179688,4334.615234,3896.666748,4264.358887,4221.666504,4360.897461,4059.743652,3186.666748,4469.743652,4720.641113,4083.718018,3717.692383,0,1,32,,,,0,4,0,2,4,4,2,4,0,4,4,4,4,4,4,16.666666,,,,,,,,,,,,,,,,,,,,,,,,,,,,,,,,,,,,,,,,,,,,,,,,,,,,,,,,,,,
1783161107,1783161107,72,0,4044.615479,4250.897461,4365.384766,4331.410156,3890.384521,4277.436035,4228.461426,4383.974121,4062.564209,3179.230713,4446.410156,4743.077148,4078.205078,3729.230713,0,1,32,,,,0,4,0,2,4,4,2,4,0,4,4,4,4,4,4,16.666666,,,,,,,,,,,,,,,,,,,,,,,,,,,,,,,,,,,,,,,,,,,,,,,,9,0,0.600599,-0.365906,-0.581177,-0.409424,1.036259,0.074716,0.049322,-4.143297,-43.146034,24.36685
1783161107,1783161107,73,0,4039.871826,4252.307617,4363.333496,4320.769043,3867.435791,4282.820313,4225.641113,4392.179688,4063.718018,3171.281982,4424.230957,4751.794922,4071.666748,3733.076904,0,1,32,,,,0,4,0,2,4,4,2,4,0,4,4,4,4,4,4,16.666666,,,,,,,,,,,,,,,,,,,,,,,,,,,,,,,,,,,,,,,,,,,,,,,,,,,,,,,,,,,
1783161107,1783161107,74,0,4033.076904,4248.461426,4339.871582,4312.436035,3833.974365,4276.922852,4215.897461,4377.05127,4062.692383,3166.923096,4423.589844,4745.256348,4072.94873,3741.410156,0,1,32,,,,0,4,0,2,4,4,2,4,0,4,4,4,4,4,4,16.666666,1,0,0,0,1,1,0,1,1,0,1,0,1,1,1,0,,,,,,,,,,,,,,,,,,,,,,,,,,,,,,,,,,,,,,,,,,,
1783161107,1783161107,75,0,4035.128174,4241.410156,4311.666504,4315.256348,3807.179443,4263.846191,4206.025879,4347.05127,4061.538574,3167.435791,4451.794922,4732.436035,4086.025635,3761.538574,0,1,32,,,,0,4,0,2,4,4,2,4,0,4,4,4,4,4,4,16.666666,,,,,,,,,,,,,,,,,,,,,,,,,,,,,,,,,,,,,,,,,,,,,,,,,,,,,,,,,,,
1783161107,1783161107,76,0,4049.230713,4235.512695,4300.641113,4328.974121,3800.384521,4252.307617,4203.461426,4322.563965,4062.94873,3168.974365,4494.102539,4725.641113,4105.128418,3788.333252,0,1,32,,,,0,4,0,2,4,4,2,4,0,4,4,4,4,4,4,16.666666,,,,,,,,,,,,,,,,,,,,,,,,,,,,,,,,,,,,,,,,,,,,,,,,,,,,,,,,,,,
1783161107,1783161107,77,0,4067.435791,4234.230957,4314.871582,4343.717773,3812.564209,4248.846191,4211.025879,4321.538574,4068.076904,3165.897461,4526.538574,4731.025879,4118.333496,3808.846191,0,1,32,,,,0,4,0,2,4,4,2,4,0,4,4,4,4,4,4,16.666666,,,,,,,,,,,,,,,,,,,,,,,,,,,,,,,,,,,,,,,,,,,,,,,,,,,,,,,,,,,
1783161107,1783161107,78,0,4077.307617,4237.820313,4343.205078,4348.077148,3830.897461,4252.820313,4225.128418,4344.358887,4075.256348,3157.820557,4535.384766,4744.487305,4118.589844,3813.333252,0,1,32,,,,0,4,0,2,4,4,2,4,0,4,4,4,4,4,4,16.666666,,,,,,,,,,,,,,,,,,,,,,,,,,,,,,,,,,,,,,,,,,,,,,,,,,,,,,,,,,,
1783161107,1783161107,79,0,4073.974365,4243.077148,4364.487305,4338.589844,3841.794922,4256.922852,4236.794922,4373.205078,4081.153809,3150.641113,4524.743652,4755.897461,4109.615234,3803.461426,0,1,32,,,,0,4,0,2,4,4,2,4,0,4,4,4,4,4,4,16.666666,,,,,,,,,,,,,,,,,,,,,,,,,,,,,,,,,,,,,,,,,,,,,,,,,,,,,,,,,,,
1783161107,1783161107,80,0,4062.05127,4246.282227,4365.512695,4320.769043,3840.769287,4253.846191,4238.077148,4387.692383,4082.820557,3150.641113,4508.461426,4756.922852,4101.282227,3791.153809,0,1,32,,,,0,4,0,2,4,4,2,4,0,4,4,4,4,4,4,16.666666,,,,,,,,,,,,,,,,,,,,,,,,,,,,,,,,,,,,,,,,,,,,,,,,10,0,0.601718,-0.362244,-0.586304,-0.403687,0.990355,0.024905,0.048346,-4.095634,-43.314766,24.430166
1783161107,1783161107,81,0,4050.897461,4246.025879,4350.769043,4305.512695,3831.538574,4243.461426,4229.230957,4382.05127,4080.256348,3157.564209,4498.205078,4749.871582,4100.641113,3789.102539,0,1,32,,,,0,4,0,2,4,4,2,4,0,4,4,4,4,4,4,16.666666,,,,,,,,,,,,,,,,,,,,,,,,,,,,,,,,,,,,,,,,,,,,,,,,,,,,,,,,,,,
1783161107,1783161107,82,0,4046.281982,4244.102539,4337.692383,4301.025879,3822.435791,4233.205078,4219.230957,4369.102539,4076.410156,3163.974365,4497.820313,4746.153809,4107.307617,3801.538574,0,1,32,,,,0,4,0,2,4,4,2,4,0,4,4,4,4,4,4,16.666666,,,,,,,,,,,,,,,,,,,,,,,,,,,,,,,,,,,,,,,,,,,,,,,,,,,,,,,,,,,
1783161107,1783161107,83,0,4047.94873,4243.846191,4341.153809,4309.230957,3820.769287,4231.282227,4218.846191,4366.922852,4075.128174,3162.820557,4505.769043,4756.025879,4115.512695,3821.794922,0,1,32,,,,0,4,0,2,4,4,2,4,0,4,4,4,4,4,4,16.666666,,,,,,,,,,,,,,,,,,,,,,,,,,,,,,,,,,,,,,,,,,,,,,,,,,,,,,,,,,,
1783161107,1783161107,84,0,4051.923096,4246.794922,4360.769043,4325.769043,3830.256348,4238.461426,4231.153809,4382.436035,4079.358887,3153.974365,4518.077148,4778.589844,4119.871582,3838.333252,0,1,32,,,,0,4,0,2,4,4,2,4,0,4,4,4,4,4,4,16.666666,,,,,,,,,,,,,,,,,,,,,,,,,,,,,,,,,,,,,,,,,,,,,,,,,,,,,,,,,,,
1783161107,1783161107,85,0,4054.743652,4251.794922,4381.922852,4344.102539,3848.974365,4247.820313,4249.102539,4405.897461,4088.461426,3144.358887,4530.512695,4801.794922,4118.333496,3843.333252,0,1,32,,,,0,4,0,2,4,4,2,4,0,4,4,4,4,4,4,16.666666,,,,,,,,,,,,,,,,,,,,,,,,,,,,,,,,,,,,,,,,,,,,,,,,,,,,,,,,,,,
1783161107,1783161107,86,0,4055.384521,4256.282227,4390.256348,4358.461426,3869.358887,4251.025879,4262.307617,4422.05127,4099.358887,3140.769287,4539.615234,4812.307617,4113.077148,3836.794922,0,1,32,,,,0,4,0,2,4,4,2,4,0,4,4,4,4,4,4,16.666666,,,,,,,,,,,,,,,,,,,,,,,,,,,,,,,,,,,,,,,,,,,,,,,,,,,,,,,,,,,
1783161107,1783161107,87,0,4053.333252,4258.205078,4383.205078,4364.743652,3882.820557,4246.153809,4265.897461,4424.871582,4107.436035,3145,4543.717773,4806.922852,4108.974121,3824.487061,0,1,32,,,,0,4,0,2,4,4,2,4,0,4,4,4,4,4,4,16.666666,,,,,,,,,,,,,,,,,,,,,,,,,,,,,,,,,,,,,,,,,,,,,,,,,,,,,,,,,,,
1783161107,1783161107,88,0,4048.461426,4258.077148,4370.384766,4361.794922,3884.743652,4238.974121,4264.102539,4421.025879,4109.871582,3154.230713,4544.615234,4793.717773,4110.128418,3813.076904,0,1,32,,,,0,4,0,2,4,4,2,4,0,4,4,4,4,4,4,16.666666,,,,,,,,,,,,,,,,,,,,,,,,,,,,,,,,,,,,,,,,,,,,,,,,11,0,0.602244,-0.359436,-0.589783,-0.40033,0.980588,0.022952,0.031742,-3.802737,-43.549953,24.320482
1783161107,1783161107,89,0,4041.281982,4257.436035,4361.794922,4351.153809,3878.718018,4236.282227,4264.230957,4420.128418,4107.307617,3164.358887,4546.025879,4783.461426,4116.538574,3806.025635,0,1,32,,,,0,4,0,2,4,4,2,4,0,4,4,4,4,4,4,16.666666,,,,,,,,,,,,,,,,,,,,,,,,,,,,,,,,,,,,,,,,,,,,,,,,,,,,,,,,,,,
1783161107,1783161107,90,0,4033.846191,4256.794922,4357.692383,4337.820313,3873.205078,4239.230957,4269.230957,4423.461426,4103.333496,3171.410156,4550,4778.717773,4123.846191,3802.564209,0,1,32,,,,0,4,0,2,4,4,2,4,0,4,4,4,4,4,4,16.666666,,,,,,,,,,,,,,,,,,,,,,,,,,,,,,,,,,,,,,,,,,,,,,,,,,,,,,,,,,,
1783161107,1783161107,91,0,4028.974365,4255.128418,4348.589844,4328.077148,3875.641113,4242.563965,4274.871582,4421.794922,4102.179688,3174.230713,4554.615234,4772.436035,4126.538574,3798.461426,0,1,32,,,,0,4,0,2,4,4,2,4,0,4,4,4,4,4,4,16.666666,,,,,,,,,,,,,,,,,,,,,,,,,,,,,,,,,,,,,,,,,,,,,,,,,,,,,,,,,,,
1783161107,1783161107,92,0,4029.871826,4251.025879,4325.641113,4326.410156,3888.076904,4240.128418,4274.102539,4403.974121,4106.025879,3174.743652,4554.358887,4757.05127,4122.563965,3789.615479,0,1,32,,,,0,4,0,2,4,4,2,4,0,4,4,4,4,4,4,16.666666,,,,,,,,,,,,,,,,,,,,,,,,,,,,,,,,,,,,,,,,,,,,,,,,,,,,,,,,,,,
1783161107,1783161107,93,0,4039.487061,4244.487305,4292.436035,4333.205078,3908.589844,4230.128418,4262.307617,4368.461426,4113.589844,3178.076904,4545.769043,4734.102539,4115.256348,3775.256348,0,1,32,,,,0,4,0,2,4,4,2,4,0,4,4,4,4,4,4,16.666666,,,,,,,,,,,,,,,,,,,,,,,,,,,,,,,,,,,,,,,,,,,,,,,,,,,,,,,,,,,
1783161107,1783161107,94,0,4058.076904,4237.436035,4263.717773,4345.256348,3933.333252,4215.512695,4242.436035,4326.794922,4121.025879,3187.692383,4531.538574,4714.487305,4112.179688,3760,0,1,32,,,,0,4,0,2,4,4,2,4,0,4,4,4,4,4,4,16.666666,,,,,,,,,,,,,,,,,,,,,,,,,,,,,,,,,,,,,,,,,,,,,,,,,,,,,,,,,,,
1783161107,1783161107,95,0,4080.897461,4232.94873,4256.410156,4358.205078,3958.076904,4202.692383,4224.487305,4297.563965,4126.153809,3202.94873,4520,4710,4119.615234,3750.128174,0,1,32,,,,0,4,0,2,4,4,2,4,0,4,4,4,4,4,4,16.666666,,,,,,,,,,,,,,,,,,,,,,,,,,,,,,,,,,,,,,,,,,,,,,,,,,,,,,,,,,,
1783161107,1783161107,96,0,4100.128418,4233.077148,4276.538574,4369.230957,3978.461426,4198.589844,4221.153809,4294.615234,4129.871582,3218.846191,4521.666504,4724.487305,4138.333496,3749.230713,0,1,32,,,,0,4,0,2,4,4,2,4,0,4,4,4,4,4,4,16.666666,,,,,,,,,,,,,,,,,,,,,,,,,,,,,,,,,,,,,,,,,,,,,,,,12,0,0.602589,-0.356812,-0.593079,-0.397278,0.96252,0.028812,0.026859,-3.68913,-43.861626,24.321768
1783161107,1783161107,97,0,4109.102539,4237.436035,4313.717773,4376.922852,3991.794922,4206.282227,4237.94873,4317.820313,4135.384766,3231.025635,4540.897461,4748.974121,4162.05127,3755.256348,0,1,32,,,,0,4,0,2,4,4,2,4,0,4,4,4,4,4,4,16.666666,,,,,,,,,,,,,,,,,,,,,,,,,,,,,,,,,,,,,,,,,,,,,,,,,,,,,,,,,,,
1783161107,1783161107,98,0,4105.641113,4243.333496,4345.384766,4380,3997.435791,4222.307617,4266.794922,4351.282227,4144.871582,3238.461426,4569.102539,4766.922852,4180.256348,3761.538574,0,1,32,,,,0,4,0,2,4,4,2,4,0,4,4,4,4,4,4,16.666666,,,,,,,,,,,,,,,,,,,,,,,,,,,,,,,,,,,,,,,,,,,,,,,,,,,,,,,,,,,
1783161107,1783161108,99,0,4092.179443,4246.794922,4349.871582,4376.666504,3996.923096,4238.461426,4290.256348,4371.538574,4157.179688,3242.820557,4589.358887,4764.230957,4185,3761.025635,0,1,32,,,,0,4,0,2,4,4,2,4,0,4,4,4,4,4,4,16.666666,,,,,,,,,,,,,,,,,,,,,,,,,,,,,,,,,,,,,,,,,,,,,,,,,,,,,,,,,,,
1783161107,1783161108,100,0,4074.102539,4245,4322.820313,4367.94873,3993.461426,4246.794922,4294.102539,4363.205078,4167.820313,3247.179443,4591.025879,4741.410156,4177.563965,3751.666748,0,1,32,,,,0,4,0,2,4,4,2,4,0,4,4,4,4,4,4,16.666666,,,,,,,,,,,,,,,,,,,,,,,,,,,,,,,,,,,,,,,,,,,,,,,,,,,,,,,,,,,
1783161107,1783161108,101,0,4058.846191,4238.589844,4281.410156,4360.128418,3991.410156,4245,4279.230957,4330.897461,4173.461426,3255.384521,4580.384766,4715.512695,4168.589844,3738.076904,0,1,32,,,,0,4,0,2,4,4,2,4,0,4,4,4,4,4,4,16.666666,,,,,,,,,,,,,,,,,,,,,,,,,,,,,,,,,,,,,,,,,,,,,,,,,,,,,,,,,,,
1783161107,1783161108,102,0,4053.076904,4231.025879,4253.589844,4361.410156,3994.230713,4237.179688,4261.153809,4296.922852,4175,3270.256348,4575.512695,4708.589844,4171.153809,3728.846191,0,1,32,,,,0,4,0,2,4,4,2,4,0,4,4,4,4,4,4,16.666666,,,,,,,,,,,,,,,,,,,,,,,,,,,,,,,,,,,,,,,,,,,,,,,,,,,,,,,,,,,
1783161107,1783161108,103,0,4059.230713,4226.794922,4257.436035,4375.641113,4001.538574,4230.512695,4256.666504,4283.974121,4177.05127,3291.538574,4588.461426,4729.230957,4189.743652,3730.384521,0,1,32,,,,0,4,0,2,4,4,2,4,0,4,4,4,4,4,4,16.666666,,,,,,,,,,,,,,,,,,,,,,,,,,,,,,,,,,,,,,,,,,,,,,,,,,,,,,,,,,,
1783161107,1783161108,104,0,4073.718018,4227.692383,4287.563965,4398.589844,4008.461426,4230.641113,4270.897461,4296.538574,4183.846191,3315.128174,4614.615234,4764.871582,4217.05127,3742.307617,0,1,32,,,,0,4,0,2,4,4,2,4,0,4,4,4,4,4,4,16.666666,,,,,,,,,,,,,,,,,,,,,,,,,,,,,,,,,,,,,,,,,,,,,,,,13,0,0.602725,-0.352356,-0.598267,-0.39325,0.966427,0.043462,0.031742,-3.55355,-44.108795,24.322924
1783161107,1783161108,105,0,4088.718018,4232.563965,4321.410156,4422.179688,4009.871826,4237.179688,4293.333496,4318.205078,4195.384766,3335.641113,4638.589844,4792.820313,4241.538574,3758.846191,0,1,32,,,,0,4,0,2,4,4,2,4,0,4,4,4,4,4,4,16.666666,,,,,,,,,,,,,,,,,,,,,,,,,,,,,,,,,,,,,,,,,,,,,,,,,,,,,,,,,,,
1783161107,1783161108,106,0,4096.282227,4237.563965,4336.922852,4439.358887,4003.718018,4245.384766,4308.333496,4326.538574,4206.794922,3349.871826,4647.94873,4797.94873,4256.538574,3772.307617,0,1,32,,,,0,4,0,2,4,4,2,4,0,4,4,4,4,4,4,16.666666,,,,,,,,,,,,,,,,,,,,,,,,,,,,,,,,,,,,,,,,,,,,,,,,,,,,,,,,,,,
1783161107,1783161108,107,0,4092.05127,4239.743652,4328.077148,4446.153809,3991.794922,4249.743652,4307.94873,4312.307617,4212.563965,3357.820557,4640.769043,4782.94873,4262.307617,3776.923096,0,1,32,,,,0,4,0,2,4,4,2,4,0,4,4,4,4,4,4,16.666666,,,,,,,,,,,,,,,,,,,,,,,,,,,,,,,,,,,,,,,,,,,,,,,,,,,,,,,,,,,
1783161107,1783161108,108,0,4074.871826,4238.333496,4305.769043,4441.538574,3977.179443,4247.307617,4296.282227,4286.538574,4210.128418,3359.615479,4623.205078,4762.307617,4261.666504,3770.256348,0,1,32,,,,0,4,0,2,4,4,2,4,0,4,4,4,4,4,4,16.666666,,,,,,,,,,,,,,,,,,,,,,,,,,,,,,,,,,,,,,,,,,,,,,,,,,,,,,,,,,,
1783161107,1783161108,109,0,4047.820557,4235.641113,4287.820313,4428.077148,3961.153809,4239.743652,4284.615234,4268.974121,4202.05127,3354.358887,4603.717773,4748.461426,4255.769043,3754.230713,0,1,32,,,,0,4,0,2,4,4,2,4,0,4,4,4,4,4,4,16.666666,,,,,,,,,,,,,,,,,,,,,,,,,,,,,,,,,,,,,,,,,,,,,,,,,,,,,,,,,,,
1783161107,1783161108,110,0,4017.05127,4234.358887,4285,4411.025879,3944.102539,4231.922852,4281.666504,4270.897461,4194.615234,3342.179443,4587.94873,4744.230957,4245.256348,3733.974365,0,1,32,,,,0,4,0,2,4,4,2,4,0,4,4,4,4,4,4,16.666666,,,,,,,,,,,,,,,,,,,,,,,,,,,,,,,,,,,,,,,,,,,,,,,,,,,,,,,,,,,
1783161107,1783161108,111,0,3990.897461,4236.025879,4294.102539,4396.794922,3928.076904,4227.436035,4288.205078,4286.153809,4193.846191,3328.461426,4577.563965,4744.102539,4233.461426,3716.025635,0,1,32,,,,0,4,0,2,4,4,2,4,0,4,4,4,4,4,4,16.666666,,,,,,,,,,,,,,,,,,,,,,,,,,,,,,,,,,,,,,,,,,,,,,,,,,,,,,,,,,,
1783161107,1783161108,112,0,3976.923096,4239.230957,4303.333496,4390.512695,3916.538574,4227.179688,4298.205078,4297.436035,4201.282227,3322.435791,4571.922852,4742.179688,4225.769043,3706.538574,0,1,32,,,,0,4,0,2,4,4,2,4,0,4,4,4,4,4,4,16.666666,,,,,,,,,,,,,,,,,,,,,,,,,,,,,,,,,,,,,,,,,,,,,,,,14,0,0.602549,-0.349609,-0.601685,-0.390747,0.998657,0.041997,0.018557,-3.481529,-44.181252,24.390631
1783161107,1783161108,113,0,3977.179443,4241.282227,4303.846191,4392.94873,3912.179443,4230,4304.487305,4291.922852,4213.589844,3331.025635,4571.410156,4738.974121,4226.922852,3709.102539,0,1,32,,,,0,4,0,2,4,4,2,4,0,4,4,4,4,4,4,16.666666,,,,,,,,,,,,,,,,,,,,,,,,,,,,,,,,,,,,,,,,,,,,,,,,,,,,,,,,,,,
1783161107,1783161108,114,0,3987.179443,4240.512695,4297.692383,4400.897461,3913.461426,4233.974121,4304.230957,4272.179688,4224.487305,3352.05127,4576.666504,4738.974121,4236.410156,3721.281982,0,1,32,,,,0,4,0,2,4,4,2,4,0,4,4,4,4,4,4,16.666666,,,,,,,,,,,,,,,,,,,,,,,,,,,,,,,,,,,,,,,,,,,,,,,,,,,,,,,,,,,
1783161107,1783161108,115,0,3997.307617,4238.205078,4294.487305,4407.05127,3914.487061,4238.077148,4299.615234,4253.333496,4228.589844,3374.487061,4586.410156,4745.512695,4248.974121,3735.512939,0,1,32,,,,0,4,0,2,4,4,2,4,0,4,4,4,4,4,4,16.666666,,,,,,,,,,,,,,,,,,,,,,,,,,,,,,,,,,,,,,,,,,,,,,,,,,,,,,,,,,,
1783161107,1783161108,116,0,3999.871826,4236.922852,4302.820313,4405,3908.974365,4241.410156,4294.743652,4250.384766,4224.230957,3387.564209,4597.307617,4756.538574,4258.333496,3743.205078,0,1,32,,,,0,4,0,2,4,4,2,4,0,4,4,4,4,4,4,16.666666,,,,,,,,,,,,,,,,,,,,,,,,,,,,,,,,,,,,,,,,,,,,,,,,,,,,,,,,,,,
1783161107,1783161108,117,0,3994.615479,4238.589844,4322.436035,4394.230957,3896.025635,4243.461426,4292.94873,4265.769043,4215.641113,3389.230713,4605.769043,4766.666504,4262.179688,3742.564209,0,1,32,,,,0,4,0,2,4,4,2,4,0,4,4,4,4,4,4,16.666666,,,,,,,,,,,,,,,,,,,,,,,,,,,,,,,,,,,,,,,,,,,,,,,,,,,,,,,,,,,
1783161107,1783161108,118,0,3987.564209,4242.436035,4343.461426,4382.820313,3880.128174,4243.461426,4294.102539,4287.94873,4209.358887,3387.307617,4611.410156,4770.897461,4263.077148,3739.230713,0,1,32,,,,0,4,0,2,4,4,2,4,0,4,4,4,4,4,4,16.666666,,,,,,,,,,,,,,,,,,,,,,,,,,,,,,,,,,,,,,,,,,,,,,,,,,,,,,,,,,,
1783161107,1783161108,119,0,3985.384521,4245.256348,4353.589844,4382.05127,3866.923096,4240.897461,4295.384766,4299.743652,4209.230957,3390.512939,4616.794922,4768.717773,4265.641113,3740.384521,0,1,32,,,,0,4,0,2,4,4,2,4,0,4,4,4,4,4,4,16.666666,,,,,,,,,,,,,,,,,,,,,,,,,,,,,,,,,,,,,,,,,,,,,,,,,,,,,,,,,,,
1783161107,1783161108,120,0,3990,4245.128418,4347.94873,4397.692383,3858.205078,4235.897461,4293.846191,4292.05127,4213.589844,3401.025635,4624.358887,4763.589844,4271.794922,3748.333252,0,1,32,,,,0,4,0,2,4,4,2,4,0,4,4,4,4,4,4,16.666666,,,,,,,,,,,,,,,,,,,,,,,,,,,,,,,,,,,,,,,,,,,,,,,,15,0,0.601747,-0.347412,-0.605408,-0.388184,1.040654,0.050787,0.00586,-3.450042,-44.196457,24.384901
1783161107,1783161108,121,0,3996.538574,4242.307617,4331.922852,4422.563965,3849.230713,4230.512695,4290.769043,4270.769043,4217.692383,3412.307617,4632.05127,4759.615234,4278.461426,3758.846191,0,1,32,,,,0,4,0,2,4,4,2,4,0,4,4,4,4,4,4,16.666666,,,,,,,,,,,,,,,,,,,,,,,,,,,,,,,,,,,,,,,,,,,,,,,,,,,,,,,,,,,
1783161107,1783161108,122,0,3995.769287,4239.615234,4317.820313,4440.128418,3833.205078,4228.717773,4291.538574,4253.333496,4218.205078,3415.384521,4634.743652,4758.461426,4280,3766.025635,0,1,32,,,,0,4,0,2,4,4,2,4,0,4,4,4,4,4,4,16.666666,,,,,,,,,,,,,,,,,,,,,,,,,,,,,,,,,,,,,,,,,,,,,,,,,,,,,,,,,,,
1783161107,1783161108,123,0,3982.05127,4240,4315.641113,4438.205078,3810.256348,4232.563965,4300.512695,4255.128418,4216.153809,3406.794922,4631.025879,4760,4273.974121,3767.692383,0,1,32,,,,0,4,0,2,4,4,2,4,0,4,4,4,4,4,4,16.666666,,,,,,,,,,,,,,,,,,,,,,,,,,,,,,,,,,,,,,,,,,,,,,,,,,,,,,,,,,,
1783161107,1783161108,124,0,3958.718018,4243.974121,4327.436035,4420.256348,3790.641113,4241.025879,4315.769043,4278.205078,4214.871582,3392.820557,4626.282227,4763.717773,4264.487305,3766.666748,0,1,32,,,,0,4,0,2,4,4,2,4,0,4,4,4,4,4,4,16.666666,,,,,,,,,,,,,,,,,,,,,,,,,,,,,,,,,,,,,,,,,,,,,,,,,,,,,,,,,,,
1783161107,1783161108,125,0,3936.410156,4249.743652,4345.512695,4401.666504,3786.410156,4250.256348,4330.384766,4309.487305,4217.820313,3384.102539,4626.794922,4769.871582,4259.102539,3767.820557,0,1,32,,,,0,4,0,2,4,4,2,4,0,4,4,4,4,4,4,16.666666,,,,,,,,,,,,,,,,,,,,,,,,,,,,,,,,,,,,,,,,,,,,,,,,,,,,,,,,,,,
1783161107,1783161108,126,0,3922.820557,4253.717773,4357.94873,4394.871582,3799.230713,4256.282227,4336.153809,4330.512695,4224.358887,3386.794922,4632.307617,4777.563965,4260.512695,3773.076904,0,1,32,,,,0,4,0,2,4,4,2,4,0,4,4,4,4,4,4,16.666666,,,,,,,,,,,,,,,,,,,,,,,,,,,,,,,,,,,,,,,,,,,,,,,,,,,,,,,,,,,
1783161107,1783161108,127,0,3917.564209,4253.974121,4357.179688,4399.743652,3818.076904,4257.05127,4329.743652,4331.794922,4228.717773,3397.820557,4636.538574,4784.358887,4263.589844,3780,0,1,32,,,,0,4,0,2,4,4,2,4,0,4,4,4,4,4,4,16.666666,,,,,,,,,,,,,,,,,,,,,,,,,,,,,,,,,,,,,,,,,,,,,,,,,,,,,,,,,,,
1783161107,1783161108,128,0,3914.230713,4251.538574,4346.922852,4407.692383,3829.358887,4252.820313,4314.102539,4320.256348,4223.846191,3409.230713,4636.410156,4788.461426,4262.307617,3785.641113,1329,1,32,,,,0,4,0,2,4,4,2,4,0,4,4,4,4,4,4,16.666666,,,,,,,,,,,,,,,,,,,,,,,,,,,,,,,,,,,,,,,,,,,,,,,,16,0,0.599861,-0.345642,-0.611145,-0.383667,1.002564,0.01465,0.000977,-3.355038,-44.226814,24.563078
1783161107,1783161108,129,0,3908.205078,4249.358887,4339.230957,4411.922852,3827.564209,4246.153809,4299.358887,4312.94873,4208.717773,3416.538574,4636.410156,4792.05127,4256.410156,3791.410156,2379,1,32,,,,0,4,0,2,4,4,2,4,0,4,4,4,4,4,4,16.666666,,,,,,,,,,,,,,,,,,,,,,,,,,,,,,,,,,,,,,,,,,,,,,,,,,,,,,,,,,,
1783161107,1783161108,130,0,3901.281982,4250.384766,4344.615234,4412.307617,3817.94873,4241.410156,4296.922852,4323.077148,4192.563965,3421.666748,4642.94873,4799.102539,4252.179688,3801.410156,2565,1,32,,,,0,4,0,2,4,4,2,4,0,4,4,4,4,4,4,16.666666,,,,,,,,,,,,,,,,,,,,,,,,,,,,,,,,,,,,,,,,,,,,,,,,,,,,,,,,,,,
1783161107,1783161108,131,0,3897.692383,4254.615234,4361.794922,4411.538574,3810.384521,4241.538574,4311.282227,4348.077148,4188.589844,3428.718018,4655.769043,4809.487305,4254.871582,3817.820557,0,1,32,,,,0,4,0,2,4,4,2,4,0,4,4,4,4,4,4,16.666666,,,,,,,,,,,,,,,,,,,,,,,,,,,,,,,,,,,,,,,,,,,,,,,,,,,,,,,,,,,
1783161107,1783161108,132,0,3900.256348,4258.589844,4377.563965,4410.897461,3810.641113,4245,4334.230957,4370.641113,4201.410156,3438.846191,4667.692383,4817.05127,4262.820313,3836.923096,2525,1,32,,,,0,4,0,2,4,4,2,4,0,4,4,4,4,4,4,16.666666,,,,,,,,,,,,,,,,,,,,,,,,,,,,,,,,,,,,,,,,,,,,,,,,,,,,,,,,,,,
1783161107,1783161108,133,0,3906.538574,4258.333496,4376.794922,4409.358887,3817.820557,4247.436035,4349.871582,4372.94873,4221.666504,3447.94873,4671.410156,4813.077148,4268.974121,3851.025635,870,1,32,,,,0,4,0,2,4,4,2,4,0,4,4,4,4,4,4,16.666666,,,,,,,,,,,,,,,,,,,,,,,,,,,,,,,,,,,,,,,,,,,,,,,,,,,,,,,,,,,
1783161107,1783161108,134,0,3910,4252.692383,4355.384766,4404.102539,3826.281982,4246.025879,4347.692383,4350.128418,4233.717773,3449.615479,4665.384766,4795,4265.897461,3852.94873,1783,1,32,,,,0,4,0,2,4,4,2,4,0,4,4,4,4,4,4,16.666666,,,,,,,,,,,,,,,,,,,,,,,,,,,,,,,,,,,,,,,,,,,,,,,,,,,,,,,,,,,
1783161107,1783161108,135,0,3905.641113,4244.615234,4324.358887,4394.230957,3830.641113,4242.307617,4331.538574,4315,4228.846191,3441.538574,4653.846191,4771.410156,4252.563965,3842.179443,0,1,32,,,,0,4,0,2,4,4,2,4,0,4,4,4,4,4,4,16.666666,,,,,,,,,,,,,,,,,,,,,,,,,,,,,,,,,,,,,,,,,,,,,,,,,,,,,,,,,,,
1783161107,1783161108,136,0,3893.846191,4238.589844,4301.794922,4383.717773,3830.384521,4241.025879,4316.282227,4288.333496,4213.333496,3428.589844,4645.128418,4756.666504,4236.282227,3827.05127,2358,1,32,,,,0,4,0,2,4,4,2,4,0,4,4,4,4,4,4,16.666666,,,,,,,,,,,,,,,,,,,,,,,,,,,,,,,,,,,,,,,,,,,,,,,,17,0,0.598253,-0.345215,-0.614746,-0.380798,1.003052,0.022464,0.003907,-3.152868,-44.187466,24.573437
1783161107,1783161108,137,0,3881.794922,4237.179688,4299.487305,4380.512695,3828.846191,4245,4313.974121,4282.94873,4202.692383,3422.05127,4646.922852,4761.410156,4230.128418,3820.256348,2506,1,32,,,,0,4,0,2,4,4,2,4,0,4,4,4,4,4,4,16.666666,,,,,,,,,,,,,,,,,,,,,,,,,,,,,,,,,,,,,,,,,,,,,,,,,,,,,,,,,,,
1783161107,1783161108,138,0,3876.666748,4238.846191,4313.589844,4390.641113,3829.358887,4251.282227,4322.94873,4294.487305,4207.307617,3430.128174,4660.512695,4783.717773,4242.05127,3830,2506,1,32,,,,0,4,0,2,4,4,2,4,0,4,4,4,4,4,4,16.666666,,,,,,,,,,,,,,,,,,,,,,,,,,,,,,,,,,,,,,,,,,,,,,,,,,,,,,,,,,,
1783161107,1783161108,139,0,3879.871826,4240,4328.974121,4410.256348,3830.641113,4253.589844,4329.743652,4306.922852,4223.077148,3450,4678.846191,4808.974121,4267.94873,3853.205078,2668,1,32,,,,0,4,0,2,4,4,2,4,0,4,4,4,4,4,4,16.666666,,,,,,,,,,,,,,,,,,,,,,,,,,,,,,,,,,,,,,,,,,,,,,,,,,,,,,,,,,,
1783161107,1783161108,140,0,3885.897461,4237.820313,4333.077148,4428.077148,3828.461426,4248.077148,4322.563965,4306.153809,4234.743652,3470,4690.769043,4820.897461,4293.333496,3877.307617,2446,1,32,,,,0,4,0,2,4,4,2,4,0,4,4,4,4,4,4,16.666666,,,,,,,,,,,,,,,,,,,,,,,,,,,,,,,,,,,,,,,,,,,,,,,,,,,,,,,,,,,
1783161107,1783161108,141,0,3887.692383,4233.205078,4326.538574,4433.846191,3820.512939,4237.05127,4303.461426,4292.05127,4229.230957,3478.589844,4690.897461,4813.589844,4303.974121,3890.384521,2314,1,32,,,,0,4,0,2,4,4,2,4,0,4,4,4,4,4,4,16.666666,,,,,,,,,,,,,,,,,,,,,,,,,,,,,,,,,,,,,,,,,,,,,,,,,,,,,,,,,,,
1783161107,1783161108,142,0,3881.153809,4230.128418,4321.410156,4425.769043,3809.230713,4227.436035,4286.282227,4277.436035,4206.538574,3472.94873,4682.692383,4796.410156,4296.025879,3888.076904,2506,1,32,,,,0,4,0,2,4,4,2,4,0,4,4,4,4,4,4,16.666666,,,,,,,,,,,,,,,,,,,,,,,,,,,,,,,,,,,,,,,,,,,,,,,,,,,,,,,,,,,
1783161107,1783161108,143,0,3868.076904,4231.666504,4327.94873,4411.410156,3798.589844,4225.897461,4284.871582,4276.538574,4179.615234,3458.974365,4674.102539,4784.615234,4277.820313,3875.512939,2668,1,32,,,,0,4,0,2,4,4,2,4,0,4,4,4,4,4,4,16.666666,,,,,,,,,,,,,,,,,,,,,,,,,,,,,,,,,,,,,,,,,,,,,,,,,,,,,,,,,,,
1783161107,1783161108,144,0,3853.589844,4236.794922,4343.589844,4400.641113,3791.153809,4234.358887,4302.05127,4291.666504,4165.128418,3447.05127,4670.769043,4787.94873,4263.333496,3862.435791,2446,1,32,,,,0,4,0,2,4,4,2,4,0,4,4,4,4,4,4,16.666666,,,,,,,,,,,,,,,,,,,,,,,,,,,,,,,,,,,,,,,,,,,,,,,,18,0,0.595236,-0.346741,-0.618835,-0.377502,1.001587,-0.006837,0.000977,-3.087581,-44.302052,24.482759
1783161107,1783161108,145,0,3843.461426,4241.538574,4355.384766,4399.743652,3786.538574,4247.820313,4328.077148,4310.897461,4171.282227,3445.384521,4674.230957,4803.717773,4262.94873,3858.333252,2314,1,32,,,,0,4,0,2,4,4,2,4,0,4,4,4,4,4,4,16.666666,,,,,,,,,,,,,,,,,,,,,,,,,,,,,,,,,,,,,,,,,,,,,,,,,,,,,,,,,,,
1783161107,1783161108,146,0,3841.281982,4242.307617,4351.794922,4409.871582,3786.025635,4258.205078,4347.692383,4318.333496,4192.94873,3456.538574,4685,4821.794922,4278.717773,3867.435791,2506,1,32,,,,0,4,0,2,4,4,2,4,0,4,4,4,4,4,4,16.666666,,,,,,,,,,,,,,,,,,,,,,,,,,,,,,,,,,,,,,,,,,,,,,,,,,,,,,,,,,,
1783161107,1783161108,147,0,3847.820557,4238.846191,4335.512695,4428.461426,3793.205078,4259.230957,4352.436035,4307.692383,4216.025879,3476.794922,4704.102539,4833.974121,4304.615234,3887.564209,2668,1,32,,,,0,4,0,2,4,4,2,4,0,4,4,4,4,4,4,16.666666,,,,,,,,,,,,,,,,,,,,,,,,,,,,,,,,,,,,,,,,,,,,,,,,,,,,,,,,,,,
1783161107,1783161108,148,0,3860.256348,4234.358887,4321.410156,4449.871582,3809.358887,4251.794922,4346.282227,4288.846191,4227.563965,3497.820557,4729.615234,4839.358887,4331.025879,3911.281982,2446,1,32,,,,0,4,0,2,4,4,2,4,0,4,4,4,4,4,4,16.666666,,,,,,,,,,,,,,,,,,,,,,,,,,,,,,,,,,,,,,,,,,,,,,,,,,,,,,,,,,,
1783161107,1783161108,149,0,3872.692383,4232.563965,4322.820313,4465.641113,3828.718018,4243.333496,4341.794922,4278.205078,4224.358887,3510.512939,4752.179688,4841.538574,4348.077148,3928.333252,2314,1,32,,,,0,4,0,2,4,4,2,4,0,4,4,4,4,4,4,16.666666,,,,,,,,,,,,,,,,,,,,,,,,,,,,,,,,,,,,,,,,,,,,,,,,,,,,,,,,,,,
1783161107,1783161108,150,0,3877.94873,4234.358887,4338.974121,4467.692383,3839.487061,4241.025879,4346.794922,4284.358887,4213.333496,3507.820557,4758.461426,4841.666504,4348.717773,3930.769287,2506,1,32,,,,0,4,0,2,4,4,2,4,0,4,4,4,4,4,4,16.666666,,,,,,,,,,,,,,,,,,,,,,,,,,,,,,,,,,,,,,,,,,,,,,,,,,,,,,,,,,,
1783161107,1783161108,151,0,3871.410156,4237.94873,4356.282227,4453.461426,3832.94873,4246.410156,4357.94873,4301.666504,4203.846191,3489.743652,4742.179688,4837.05127,4332.436035,3917.564209,2668,1,32,,,,0,4,0,2,4,4,2,4,0,4,4,4,4,4,4,16.666666,,,,,,,,,,,,,,,,,,,,,,,,,,,,,,,,,,,,,,,,,,,,,,,,,,,,,,,,,,,
1783161107,1783161108,152,0,3855.256348,4240.512695,4360.128418,4429.743652,3811.666748,4255.128418,4365.128418,4316.410156,4201.282227,3464.871826,4712.820313,4826.282227,4308.077148,3897.05127,2446,1,32,,,,0,4,0,2,4,4,2,4,0,4,4,4,4,4,4,16.666666,,,,,,,,,,,,,,,,,,,,,,,,,,,,,,,,,,,,,,,,,,,,,,,,19,0,0.592778,-0.348938,-0.621033,-0.375732,1.000122,0.009767,0.001465,-3.062156,-44.355179,24.40115
1783161107,1783161108,153,0,3837.435791,4240.897461,4347.692383,4408.717773,3788.718018,4262.307617,4361.153809,4318.589844,4205.897461,3446.794922,4691.025879,4813.717773,4290.256348,3882.564209,2314,1,32,,,,0,4,0,2,4,4,2,4,0,4,4,4,4,4,4,16.666666,,,,,,,,,,,,,,,,,,,,,,,,,,,,,,,,,,,,,,,,,,,,,,,,,,,,,,,,,,,
1783161107,1783161108,154,0,3826.538574,4239.615234,4329.487305,4400,3780,4265.769043,4347.436035,4308.717773,4213.846191,3446.281982,4692.692383,4807.307617,4289.743652,3883.846191,2506,1,32,,,,0,4,0,2,4,4,2,4,0,4,4,4,4,4,4,16.666666,,,,,,,,,,,,,,,,,,,,,,,,,,,,,,,,,,,,,,,,,,,,,,,,,,,,,,,,,,,
1783161107,1783161108,155,0,3825.769287,4238.589844,4320.256348,4405.128418,3792.820557,4266.025879,4330.769043,4296.666504,4219.487305,3462.94873,4717.179688,4811.410156,4305.769043,3899.615479,2668,1,32,,,,0,4,0,2,4,4,2,4,0,4,4,4,4,4,4,16.666666,,,,,,,,,,,,,,,,,,,,,,,,,,,,,,,,,,,,,,,,,,,,,,,,,,,,,,,,,,,
1783161107,1783161108,156,0,3830.641113,4239.358887,4326.922852,4417.307617,3820.128174,4264.230957,4318.205078,4293.077148,4218.974121,3485.897461,4748.205078,4823.205078,4325.641113,3918.461426,2446,1,32,,,,0,4,0,2,4,4,2,4,0,4,4,4,4,4,4,16.666666,,,,,,,,,,,,,,,,,,,,,,,,,,,,,,,,,,,,,,,,,,,,,,,,,,,,,,,,,,,
1783161107,1783161108,157,0,3833.076904,4241.922852,4343.589844,4427.05127,3845,4261.538574,4312.692383,4300.641113,4212.563965,3501.410156,4766.794922,4833.205078,4333.717773,3927.564209,2314,1,32,,,,0,4,0,2,4,4,2,4,0,4,4,4,4,4,4,16.666666,,,,,,,,,,,,,,,,,,,,,,,,,,,,,,,,,,,,,,,,,,,,,,,,,,,,,,,,,,,
1783161107,1783161108,158,0,3827.05127,4244.358887,4354.871582,4428.974121,3852.564209,4259.358887,4312.94873,4310.897461,4205.384766,3503.589844,4763.846191,4833.077148,4324.358887,3922.179443,2506,1,32,,,,0,4,0,2,4,4,2,4,0,4,4,4,4,4,4,16.666666,,,,,,,,,,,,,,,,,,,,,,,,,,,,,,,,,,,,,,,,,,,,,,,,,,,,,,,,,,,
1783161107,1783161108,159,0,3814.487061,4244.487305,4349.487305,4424.615234,3841.794922,4258.077148,4314.487305,4311.922852,4202.05127,3497.94873,4745.769043,4821.538574,4306.282227,3909.358887,2668,1,32,,,,0,4,0,2,4,4,2,4,0,4,4,4,4,4,4,16.666666,,,,,,,,,,,,,,,,,,,,,,,,,,,,,,,,,,,,,,,,,,,,,,,,,,,,,,,,,,,
1783161107,1783161108,160,0,3802.94873,4241.922852,4329.358887,4421.153809,3826.666748,4257.563965,4313.461426,4299.871582,4204.487305,3496.666748,4727.692383,4805.897461,4295.384766,3902.435791,2446,1,32,,,,0,4,0,2,4,4,2,4,0,4,4,4,4,4,4,16.666666,,,,,,,,,,,,,,,,,,,,,,,,,,,,,,,,,,,,,,,,,,,,,,,,20,0,0.589128,-0.352539,-0.623352,-0.374268,1.000122,-0.009767,-0.035161,-2.989274,-44.502995,24.194368
1783161107,1783161108,161,0,3800.128174,4238.205078,4310.128418,4424.487305,3823.846191,4257.436035,4310.256348,4283.717773,4210.512695,3508.205078,4723.461426,4797.820313,4302.563965,3910.512939,2314,1,32,,,,0,4,0,2,4,4,2,4,0,4,4,4,4,4,4,16.666666,,,,,,,,,,,,,,,,,,,,,,,,,,,,,,,,,,,,,,,,,,,,,,,,,,,,,,,,,,,
1783161107,1783161108,162,0,3806.794922,4236.282227,4308.077148,4433.205078,3838.589844,4259.102539,4309.871582,4277.692383,4217.94873,3530.256348,4735.384766,4804.358887,4324.230957,3931.538574,2506,1,32,,,,0,4,0,2,4,4,2,4,0,4,4,4,4,4,4,16.666666,,,,,,,,,,,,,,,,,,,,,,,,,,,,,,,,,,,,,,,,,,,,,,,,,,,,,,,,,,,
1783161107,1783161108,163,0,3815.641113,4237.94873,4326.025879,4439.743652,3859.871826,4264.102539,4316.666504,4288.974121,4225.769043,3551.794922,4754.615234,4821.282227,4345.512695,3953.718018,2668,1,32,,,,0,4,0,2,4,4,2,4,0,4,4,4,4,4,4,16.666666,,,,,,,,,,,,,,,,,,,,,,,,,,,,,,,,,,,,,,,,,,,,,,,,,,,,,,,,,,,
1783161107,1783161108,164,0,3816.281982,4242.05127,4348.846191,4436.538574,3870.256348,4271.794922,4329.615234,4309.871582,4233.589844,3562.307617,4768.205078,4835.641113,4351.538574,3964.871826,2446,1,32,,,,0,4,0,2,4,4,2,4,0,4,4,4,4,4,4,16.666666,,,,,,,,,,,,,,,,,,,,,,,,,,,,,,,,,,,,,,,,,,,,,,,,,,,,,,,,,,,
1783161107,1783161108,165,0,3804.487061,4245.256348,4355.384766,4423.846191,3860.897461,4278.461426,4340.256348,4323.333496,4238.589844,3560.128174,4768.461426,4835.384766,4339.230957,3961.666748,2314,1,32,,,,0,4,0,2,4,4,2,4,0,4,4,4,4,4,4,16.666666,,,,,,,,,,,,,,,,,,,,,,,,,,,,,,,,,,,,,,,,,,,,,,,,,,,,,,,,,,,
1783161107,1783161108,166,0,3786.025635,4244.743652,4335.641113,4409.743652,3838.205078,4279.871582,4338.717773,4316.025879,4236.666504,3552.179443,4757.05127,4818.974121,4318.589844,3951.666748,2506,1,32,,,,0,4,0,2,4,4,2,4,0,4,4,4,4,4,4,16.666666,,,,,,,,,,,,,,,,,,,,,,,,,,,,,,,,,,,,,,,,,,,,,,,,,,,,,,,,,,,
1783161107,1783161108,167,0,3772.692383,4240.128418,4300.769043,4403.717773,3817.564209,4274.743652,4323.077148,4289.871582,4225.512695,3547.435791,4742.820313,4797.692383,4304.487305,3947.05127,2668,1,32,,,,0,4,0,2,4,4,2,4,0,4,4,4,4,4,4,16.666666,,,,,,,,,,,,,,,,,,,,,,,,,,,,,,,,,,,,,,,,,,,,,,,,,,,,,,,,,,,
1783161107,1783161108,168,0,3772.435791,4234.102539,4274.615234,4409.487305,3810.897461,4266.922852,4301.922852,4261.922852,4208.333496,3550.769287,4736.153809,4786.794922,4305.641113,3955.641113,2446,1,32,,,,0,4,0,2,4,4,2,4,0,4,4,4,4,4,4,16.666666,,,,,,,,,,,,,,,,,,,,,,,,,,,,,,,,,,,,,,,,,,,,,,,,21,0,0.58133,-0.362122,-0.626343,-0.372314,0.948846,-0.044439,-0.062508,-2.940346,-44.502697,24.074932
1783161107,1783161108,169,0,3784.230713,4230.897461,4275.128418,4422.436035,3819.615479,4261.538574,4288.717773,4250.897461,4192.94873,3560.256348,4741.538574,4794.102539,4319.743652,3976.281982,2314,1,32,,,,0,4,0,2,4,4,2,4,0,4,4,4,4,4,4,16.666666,,,,,,,,,,,,,,,,,,,,,,,,,,,,,,,,,,,,,,,,,,,,,,,,,,,,,,,,,,,
1783161107,1783161108,170,0,3799.358887,4232.179688,4300.384766,4435.384766,3835.384521,4261.025879,4291.025879,4262.307617,4186.922852,3570.128174,4754.230957,4813.461426,4335.256348,4000.512939,2506,1,32,,,,0,4,0,2,4,4,2,4,0,4,4,4,4,4,4,16.666666,,,,,,,,,,,,,,,,,,,,,,,,,,,,,,,,,,,,,,,,,,,,,,,,,,,,,,,,,,,
1783161107,1783161108,171,0,3810,4236.282227,4331.282227,4443.589844,3848.205078,4263.205078,4305.128418,4285.384766,4191.794922,3575.897461,4764.487305,4829.743652,4341.538574,4019.487061,2668,1,32,,,,0,4,0,2,4,4,2,4,0,4,4,4,4,4,4,16.666666,,,,,,,,,,,,,,,,,,,,,,,,,,,,,,,,,,,,,,,,,,,,,,,,,,,,,,,,,,,
1783161107,1783161108,172,0,3814.487061,4239.615234,4347.820313,4447.05127,3852.820557,4263.974121,4319.871582,4301.922852,4203.077148,3578.076904,4764.743652,4831.538574,4336.282227,4030.128174,2446,1,32,,,,0,4,0,2,4,4,2,4,0,4,4,4,4,4,4,16.666666,,,,,,,,,,,,,,,,,,,,,,,,,,,,,,,,,,,,,,,,,,,,,,,,,,,,,,,,,,,
1783161107,1783161108,173,0,3816.410156,4239.743652,4343.846191,4448.205078,3851.410156,4261.794922,4324.487305,4300.897461,4212.692383,3580.384521,4757.05127,4818.589844,4326.025879,4035,2314,1,32,,,,0,4,0,2,4,4,2,4,0,4,4,4,4,4,4,16.666666,,,,,,,,,,,,,,,,,,,,,,,,,,,,,,,,,,,,,,,,,,,,,,,,,,,,,,,,,,,
1783161107,1783161108,174,0,3818.076904,4236.666504,4327.563965,4447.94873,3848.846191,4258.077148,4316.153809,4285.641113,4214.487305,3585.641113,4750.128418,4801.282227,4319.358887,4037.435791,2506,1,32,,,,0,4,0,2,4,4,2,4,0,4,4,4,4,4,4,16.666666,,,,,,,,,,,,,,,,,,,,,,,,,,,,,,,,,,,,,,,,,,,,,,,,,,,,,,,,,,,
1783161107,1783161108,175,0,3817.564209,4233.077148,4313.333496,4445.256348,3847.179443,4255.897461,4301.794922,4269.615234,4207.307617,3591.794922,4751.538574,4791.153809,4319.871582,4039.615479,2668,1,32,,,,0,4,0,2,4,4,2,4,0,4,4,4,4,4,4,16.666666,,,,,,,,,,,,,,,,,,,,,,,,,,,,,,,,,,,,,,,,,,,,,,,,,,,,,,,,,,,
1783161107,1783161108,176,0,3811.923096,4231.025879,4309.615234,4439.358887,3845.384521,4256.794922,4291.794922,4265,4195.384766,3594.487061,4760.384766,4793.333496,4325.897461,4042.820557,2446,1,32,,,,0,4,0,2,4,4,2,4,0,4,4,4,4,4,4,16.666666,,,,,,,,,,,,,,,,,,,,,,,,,,,,,,,,,,,,,,,,,,,,,,,,22,0,0.57412,-0.370728,-0.628174,-0.371948,0.907337,-0.064461,-0.089366,-2.979645,-44.502426,23.834106
1783161107,1783161108,177,0,3801.153809,4231.666504,4315.128418,4431.922852,3841.923096,4259.230957,4292.436035,4273.461426,4184.743652,3592.05127,4767.94873,4803.846191,4333.205078,4049.102539,2314,1,32,,,,0,4,0,2,4,4,2,4,0,4,4,4,4,4,4,16.666666,,,,,,,,,,,,,,,,,,,,,,,,,,,,,,,,,,,,,,,,,,,,,,,,,,,,,,,,,,,
1783161107,1783161108,178,0,3790.512939,4233.846191,4321.153809,4426.025879,3838.333252,4259.615234,4301.282227,4285.769043,4180.384766,3587.179443,4766.153809,4814.230957,4338.461426,4058.974365,2506,1,32,,,,0,4,0,2,4,4,2,4,0,4,4,4,4,4,4,16.666666,,,,,,,,,,,,,,,,,,,,,,,,,,,,,,,,,,,,,,,,,,,,,,,,,,,,,,,,,,,
1783161107,1783161108,179,0,3786.281982,4235.897461,4319.871582,4424.102539,3837.179443,4254.743652,4311.666504,4289.743652,4183.717773,3584.871826,4755.641113,4818.205078,4341.922852,4070.384521,2668,1,32,,,,0,4,0,2,4,4,2,4,0,4,4,4,4,4,4,16.666666,,,,,,,,,,,,,,,,,,,,,,,,,,,,,,,,,,,,,,,,,,,,,,,,,,,,,,,,,,,
1783161107,1783161108,180,0,3790.512939,4236.922852,4311.538574,4425.897461,3839.230713,4246.538574,4319.102539,4281.666504,4193.846191,3588.846191,4746.410156,4817.05127,4345.769043,4078.974365,2446,1,32,,,,0,4,0,2,4,4,2,4,0,4,4,4,4,4,4,16.666666,,,,,,,,,,,,,,,,,,,,,,,,,,,,,,,,,,,,,,,,,,,,,,,,,,,,,,,,,,,
1783161107,1783161108,181,0,3798.846191,4237.563965,4304.358887,4429.230957,3841.538574,4240.641113,4325.384766,4270,4207.692383,3600.128174,4750.641113,4817.692383,4352.94873,4081.025635,2314,1,32,,,,0,4,0,2,4,4,2,4,0,4,4,4,4,4,4,16.666666,,,,,,,,,,,,,,,,,,,,,,,,,,,,,,,,,,,,,,,,,,,,,,,,,,,,,,,,,,,
1783161107,1783161108,182,0,3803.205078,4239.102539,4307.05127,4431.922852,3839.487061,4242.820313,4334.358887,4268.717773,4222.05127,3616.025635,4770,4825.897461,4363.077148,4076.153809,2506,1,32,,,,0,4,0,2,4,4,2,4,0,4,4,4,4,4,4,16.666666,,,,,,,,,,,,,,,,,,,,,,,,,,,,,,,,,,,,,,,,,,,,,,,,,,,,,,,,,,,
1783161107,1783161108,183,0,3797.820557,4241.538574,4319.871582,4433.333496,3830.897461,4253.589844,4345.384766,4283.205078,4232.94873,3630.384521,4792.563965,4838.717773,4371.922852,4066.153809,2668,1,32,,,,0,4,0,2,4,4,2,4,0,4,4,4,4,4,4,16.666666,,,,,,,,,,,,,,,,,,,,,,,,,,,,,,,,,,,,,,,,,,,,,,,,,,,,,,,,,,,
1783161107,1783161108,184,0,3782.692383,4243.205078,4332.307617,4433.717773,3818.076904,4265.384766,4352.179688,4304.102539,4235.512695,3636.794922,4800.512695,4845,4372.692383,4053.205078,2446,1,32,,,,0,4,0,2,4,4,2,4,0,4,4,4,4,4,4,16.666666,,,,,,,,,,,,,,,,,,,,,,,,,,,,,,,,,,,,,,,,,,,,,,,,23,0,0.5651,-0.380615,-0.629822,-0.372986,0.899524,-0.01758,-0.145037,-2.998347,-44.485516,23.600695
1783161107,1783161108,185,0,3762.692383,4242.307617,4331.538574,4433.205078,3805.641113,4268.461426,4347.563965,4313.717773,4227.307617,3631.153809,4784.871582,4833.461426,4361.922852,4039.102539,2314,1,32,,,,0,4,0,2,4,4,2,4,0,4,4,4,4,4,4,16.666666,,,,,,,,,,,,,,,,,,,,,,,,,,,,,,,,,,,,,,,,,,,,,,,,,,,,,,,,,,,
1783161107,1783161108,186,0,3744.743652,4238.333496,4313.205078,4429.871582,3796.410156,4258.589844,4330.512695,4300.897461,4209.743652,3615.641113,4753.205078,4803.717773,4342.94873,4025.256348,2506,1,32,,,,0,4,0,2,4,4,2,4,0,4,4,4,4,4,4,16.666666,,,,,,,,,,,,,,,,,,,,,,,,,,,,,,,,,,,,,,,,,,,,,,,,,,,,,,,,,,,
1783161107,1783161108,187,0,3732.692383,4232.692383,4286.538574,4422.05127,3789.743652,4241.153809,4308.589844,4273.205078,4189.615234,3597.05127,4723.333496,4768.589844,4323.461426,4013.205078,2668,1,32,,,,0,4,0,2,4,4,2,4,0,4,4,4,4,4,4,16.666666,,,,,,,,,,,,,,,,,,,,,,,,,,,,,,,,,,,,,,,,,,,,,,,,,,,,,,,,,,,
1783161107,1783161108,188,0,3726.281982,4228.333496,4269.615234,4411.282227,3783.076904,4228.333496,4294.871582,4251.538574,4175.769043,3583.461426,4710.641113,4746.538574,4310.512695,4005.384521,2446,1,32,,,,0,4,0,2,4,4,2,4,0,4,4,4,4,4,4,16.666666,,,,,,,,,,,,,,,,,,,,,,,,,,,,,,,,,,,,,,,,,,,,,,,,,,,,,,,,,,,
1783161107,1783161108,189,0,3724.102539,4227.307617,4275,4403.077148,3776.153809,4228.974121,4297.563965,4252.94873,4174.358887,3579.230713,4718.461426,4749.102539,4307.692383,4004.743652,2314,1,32,,,,0,4,0,2,4,4,2,4,0,4,4,4,4,4,4,16.666666,,,,,,,,,,,,,,,,,,,,,,,,,,,,,,,,,,,,,,,,,,,,,,,,,,,,,,,,,,,
1783161107,1783161108,190,0,3725.769287,4229.871582,4299.871582,4403.846191,3772.05127,4241.922852,4313.589844,4274.487305,4185,3584.871826,4738.077148,4772.05127,4313.589844,4012.435791,2506,1,32,,,,0,4,0,2,4,4,2,4,0,4,4,4,4,4,4,16.666666,,,,,,,,,,,,,,,,,,,,,,,,,,,,,,,,,,,,,,,,,,,,,,,,,,,,,,,,,,,
1783161107,1783161108,191,0,3730.897461,4233.589844,4326.153809,4415.128418,3773.718018,4255.897461,4329.615234,4296.666504,4200,3598.076904,4755.641113,4798.846191,4324.102539,4024.743652,2668,1,32,,,,0,4,0,2,4,4,2,4,0,4,4,4,4,4,4,16.666666,,,,,,,,,,,,,,,,,,,,,,,,,,,,,,,,,,,,,,,,,,,,,,,,,,,,,,,,,,,
1783161107,1783161108,192,0,3736.025635,4235.256348,4334.358887,4431.410156,3779.871826,4260,4333.461426,4300.384766,4208.589844,3614.102539,4761.282227,4812.436035,4333.974121,4034.615479,2446,1,32,,,,0,4,0,2,4,4,2,4,0,4,4,4,4,4,4,16.666666,,,,,,,,,,,,,,,,,,,,,,,,,,,,,,,,,,,,,,,,,,,,,,,,24,0,0.549147,-0.39563,-0.632568,-0.376526,0.997192,0.066414,-0.204615,-3.031846,-44.520298,22.973959
1783161107,1783161108,193,0,3736.153809,4233.589844,4319.871582,4443.077148,3783.718018,4251.666504,4323.589844,4283.717773,4204.230957,3627.692383,4754.230957,4807.436035,4339.230957,4036.923096,2314,1,32,,,,0,4,0,2,4,4,2,4,0,4,4,4,4,4,4,16.666666,,,,,,,,,,,,,,,,,,,,,,,,,,,,,,,,,,,,,,,,,,,,,,,,,,,,,,,,,,,
1783161107,1783161108,194,0,3729.487061,4229.871582,4296.153809,4445.641113,3778.205078,4239.102539,4310.512695,4261.025879,4189.230957,3635,4742.94873,4792.307617,4339.743652,4032.692383,2506,1,32,,,,0,4,0,2,4,4,2,4,0,4,4,4,4,4,4,16.666666,,,,,,,,,,,,,,,,,,,,,,,,,,,,,,,,,,,,,,,,,,,,,,,,,,,,,,,,,,,
1783161107,1783161108,195,0,3720.769287,4227.179688,4284.358887,4443.205078,3761.794922,4233.589844,4307.692383,4249.358887,4174.102539,3635.769287,4737.307617,4781.794922,4338.974121,4029.358887,2668,1,32,,,,0,4,0,2,4,4,2,4,0,4,4,4,4,4,4,16.666666,,,,,,,,,,,,,,,,,,,,,,,,,,,,,,,,,,,,,,,,,,,,,,,,,,,,,,,,,,,
1783161107,1783161108,196,0,3717.05127,4227.692383,4295.897461,4442.692383,3738.974365,4240.641113,4321.153809,4255.641113,4170.256348,3632.94873,4742.436035,4784.743652,4340.897461,4033.461426,2446,1,32,,,,0,4,0,2,4,4,2,4,0,4,4,4,4,4,4,16.666666,,,,,,,,,,,,,,,,,,,,,,,,,,,,,,,,,,,,,,,,,,,,,,,,,,,,,,,,,,,
1783161107,1783161108,197,0,3720.641113,4231.153809,4324.358887,4446.410156,3716.153809,4256.410156,4344.871582,4274.743652,4181.538574,3629.358887,4756.282227,4798.846191,4346.025879,4045.256348,2314,1,32,,,,0,4,0,2,4,4,2,4,0,4,4,4,4,4,4,16.666666,,,,,,,,,,,,,,,,,,,,,,,,,,,,,,,,,,,,,,,,,,,,,,,,,,,,,,,,,,,
1783161107,1783161108,198,0,3728.076904,4235.128418,4352.307617,4450.512695,3696.923096,4270.769043,4364.743652,4295.256348,4201.666504,3625.641113,4773.077148,4813.589844,4351.666504,4059.487061,2506,1,32,,,,0,4,0,2,4,4,2,4,0,4,4,4,4,4,4,16.666666,,,,,,,,,,,,,,,,,,,,,,,,,,,,,,,,,,,,,,,,,,,,,,,,,,,,,,,,,,,
1783161107,1783161108,199,0,3734.358887,4237.05127,4365.256348,4451.025879,3681.281982,4275.512695,4369.487305,4306.794922,4219.487305,3622.820557,4787.179688,4820.256348,4355.769043,4072.05127,2668,1,32,,,,0,4,0,2,4,4,2,4,0,4,4,4,4,4,4,16.666666,,,,,,,,,,,,,,,,,,,,,,,,,,,,,,,,,,,,,,,,,,,,,,,,,,,,,,,,,,,
1783161107,1783161108,200,0,3738.846191,4236.794922,4361.666504,4448.205078,3667.307617,4270.641113,4358.205078,4305.512695,4228.589844,3623.718018,4796.410156,4819.743652,4360.641113,4084.871826,2446,1,32,,,,0,4,0,2,4,4,2,4,0,4,4,4,4,4,4,16.666666,,,,,,,,,,,,,,,,,,,,,,,,,,,,,,,,,,,,,,,,,,,,,,,,25,0,0.537389,-0.406616,-0.634094,-0.379211,1.060676,0.084971,-0.243194,-2.911995,-44.501602,22.593229
1783161107,1783161108,201,0,3745.384521,4235.897461,4353.077148,4446.538574,3653.076904,4265,4342.179688,4297.436035,4232.307617,3633.076904,4803.333496,4822.94873,4371.666504,4104.102539,2314,1,32,,,,0,4,0,2,4,4,2,4,0,4,4,4,4,4,4,16.666666,,,,,,,,,,,,,,,,,,,,,,,,,,,,,,,,,,,,,,,,,,,,,,,,,,,,,,,,,,,
1783161107,1783161108,202,0,3758.718018,4236.410156,4354.743652,4450.897461,3638.589844,4268.077148,4336.410156,4294.358887,4238.846191,3652.692383,4814.102539,4842.307617,4393.846191,4135,2506,1,32,,,,0,4,0,2,4,4,2,4,0,4,4,4,4,4,4,16.666666,1,0,1,0,0,1,0,1,0,0,1,0,0,1,1,0,,,,,,,,,,,,,,,,,,,,,,,,,,,,,,,,,,,,,,,,,,,
1783161107,1783161108,203,0,3780.128174,4238.589844,4372.692383,4463.077148,3625.256348,4281.282227,4347.436035,4303.846191,4251.666504,3678.718018,4832.307617,4879.743652,4426.794922,4176.410156,2668,1,32,,,,0,4,0,2,4,4,2,4,0,4,4,4,4,4,4,16.666666,,,,,,,,,,,,,,,,,,,,,,,,,,,,,,,,,,,,,,,,,,,,,,,,,,,,,,,,,,,
1783161107,1783161108,204,0,3805,4241.153809,4398.846191,4479.358887,3613.718018,4296.538574,4366.794922,4320.512695,4265,3702.564209,4854.358887,4922.179688,4463.461426,4219.358887,2446,1,32,,,,0,4,0,2,4,4,2,4,0,4,4,4,4,4,4,16.666666,,,,,,,,,,,,,,,,,,,,,,,,,,,,,,,,,,,,,,,,,,,,,,,,,,,,,,,,,,,
1783161107,1783161108,205,0,3825.897461,4242.179688,4417.436035,4493.077148,3602.94873,4302.307617,4378.205078,4329.615234,4270.641113,3715.128174,4869.615234,4950.769043,4493.333496,4253.205078,2314,1,32,,,,0,4,0,2,4,4,2,4,0,4,4,4,4,4,4,16.666666,,,,,,,,,,,,,,,,,,,,,,,,,,,,,,,,,,,,,,,,,,,,,,,,,,,,,,,,,,,
1783161107,1783161108,206,0,3838.461426,4240.897461,4417.94873,4498.077148,3591.281982,4293.333496,4371.794922,4320.512695,4266.282227,3712.435791,4870.384766,4955.641113,4509.230957,4272.436035,2506,1,32,,,,0,4,0,2,4,4,2,4,0,4,4,4,4,4,4,16.666666,,,,,,,,,,,,,,,,,,,,,,,,,,,,,,,,,,,,,,,,,,,,,,,,,,,,,,,,,,,
1783161107,1783161108,207,0,3844.487061,4237.820313,4404.487305,4493.333496,3577.564209,4275.384766,4352.94873,4298.974121,4257.307617,3698.205078,4860.897461,4944.487305,4512.307617,4280.641113,2668,1,32,,,,0,4,0,2,4,4,2,4,0,4,4,4,4,4,4,16.666666,,,,,,,,,,,,,,,,,,,,,,,,,,,,,,,,,,,,,,,,,,,,,,,,,,,,,,,,,,,
1783161107,1783161108,208,0,3850.384521,4235.384766,4392.563965,4483.589844,3562.307617,4260.512695,4337.179688,4283.717773,4252.179688,3682.307617,4855.384766,4936.025879,4510.769043,4288.717773,2446,1,32,,,,0,4,0,2,4,4,2,4,0,4,4,4,4,4,4,16.666666,,,,,,,,,,,,,,,,,,,,,,,,,,,,,,,,,,,,,,,,,,,,,,,,26,0,0.521678,-0.424988,-0.634216,-0.380798,0.989379,0.101087,-0.254426,-2.654129,-44.66811,21.983906
1783161107,1783161108,209,0,3861.410156,4235.769043,4395.897461,4476.410156,3547.179443,4257.05127,4336.153809,4290.384766,4255.128418,3675,4864.871582,4943.974121,4513.333496,4306.410156,2314,1,32,,,,0,4,0,2,4,4,2,4,0,4,4,4,4,4,4,16.666666,,,,,,,,,,,,,,,,,,,,,,,,,,,,,,,,,,,,,,,,,,,,,,,,,,,,,,,,,,,
1783161107,1783161108,210,0,3877.564209,4239.230957,4412.692383,4476.153809,3533.974365,4263.846191,4348.205078,4315,4263.717773,3680.897461,4886.794922,4965.769043,4522.436035,4335,2506,1,32,,,,0,4,0,2,4,4,2,4,0,4,4,4,4,4,4,16.666666,,,,,,,,,,,,,,,,,,,,,,,,,,,,,,,,,,,,,,,,,,,,,,,,,,,,,,,,,,,
1783161107,1783161108,211,0,3894.358887,4242.692383,4426.538574,4481.666504,3523.718018,4269.871582,4361.153809,4336.794922,4271.794922,3695.641113,4906.922852,4985.897461,4534.102539,4367.307617,2668,1,32,,,,0,4,0,2,4,4,2,4,0,4,4,4,4,4,4,16.666666,,,,,,,,,,,,,,,,,,,,,,,,,,,,,,,,,,,,,,,,,,,,,,,,,,,,,,,,,,,
1783161107,1783161108,212,0,3907.564209,4242.436035,4421.282227,4487.820313,3516.025635,4265,4364.743652,4336.025879,4275.384766,3710,4913.461426,4991.666504,4543.589844,4395.256348,2446,1,32,,,,0,4,0,2,4,4,2,4,0,4,4,4,4,4,4,16.666666,,,,,,,,,,,,,,,,,,,,,,,,,,,,,,,,,,,,,,,,,,,,,,,,,,,,,,,,,,,
1783161107,1783161108,213,0,3916.794922,4236.794922,4396.538574,4489.358887,3510.769287,4248.333496,4359.102539,4311.794922,4275.769043,3717.692383,4908.974121,4984.230957,4550.384766,4415.512695,2314,1,32,,,,0,4,0,2,4,4,2,4,0,4,4,4,4,4,4,16.666666,,,,,,,,,,,,,,,,,,,,,,,,,,,,,,,,,,,,,,,,,,,,,,,,,,,,,,,,,,,
1783161107,1783161108,214,0,3925.256348,4228.846191,4370.256348,4486.282227,3508.333252,4229.615234,4352.820313,4282.563965,4278.974121,3720.512939,4907.436035,4976.025879,4557.179688,4429.743652,2506,1,32,,,,0,4,0,2,4,4,2,4,0,4,4,4,4,4,4,16.666666,,,,,,,,,,,,,,,,,,,,,,,,,,,,,,,,,,,,,,,,,,,,,,,,,,,,,,,,,,,
1783161107,1783161108,215,0,3934.743652,4224.358887,4362.307617,4482.179688,3509.102539,4220.641113,4353.205078,4269.615234,4289.615234,3725.512939,4920.641113,4976.410156,4565.512695,4440,2668,1,32,,,,0,4,0,2,4,4,2,4,0,4,4,4,4,4,4,16.666666,,,,,,,,,,,,,,,,,,,,,,,,,,,,,,,,,,,,,,,,,,,,,,,,,,,,,,,,,,,
1783161107,1783161108,216,0,3941.538574,4226.410156,4376.410156,4480.256348,3511.666748,4225.897461,4359.871582,4280.128418,4305.256348,3736.410156,4947.05127,4983.077148,4572.692383,4445.897461,2446,1,32,,,,0,4,0,2,4,4,2,4,0,4,4,4,4,4,4,16.666666,,,,,,,,,,,,,,,,,,,,,,,,,,,,,,,,,,,,,,,,,,,,,,,,27,0,0.512351,-0.437805,-0.631958,-0.38269,0.949823,0.07667,-0.24417,-2.555382,-44.684631,21.152184
1783161108,1783161108,217,0,3939.615479,4232.692383,4396.922852,4479.871582,3511.923096,4239.487305,4366.922852,4303.461426,4318.077148,3750.128174,4972.820313,4985,4574.487305,4446.153809,2314,1,32,,,,0,4,0,2,4,4,2,4,0,4,4,4,4,4,4,16.666666,,,,,,,,,,,,,,,,,,,,,,,,,,,,,,,,,,,,,,,,,,,,,,,,,,,,,,,,,,,
1783161108,1783161108,218,0,3926.666748,4237.94873,4403.717773,4478.717773,3507.179443,4250.512695,4368.846191,4321.025879,4322.436035,3760.256348,4984.358887,4974.871582,4571.153809,4442.436035,2506,1,32,,,,0,4,0,2,4,4,2,4,0,4,4,4,4,4,4,16.666666,,,,,,,,,,,,,,,,,,,,,,,,,,,,,,,,,,,,,,,,,,,,,,,,,,,,,,,,,,,
1783161108,1783161108,219,0,3907.179443,4238.205078,4389.230957,4475.769043,3498.205078,4251.922852,4365.769043,4321.794922,4320.256348,3764.230713,4979.358887,4956.282227,4567.692383,4439.358887,2668,1,32,,,,0,4,0,2,4,4,2,4,0,4,4,4,4,4,4,16.666666,,,,,,,,,,,,,,,,,,,,,,,,,,,,,,,,,,,,,,,,,,,,,,,,,,,,,,,,,,,
1783161108,1783161108,220,0,3889.871826,4233.717773,4364.102539,4472.692383,3489.615479,4245.256348,4362.179688,4308.461426,4318.846191,3766.025635,4967.94873,4939.102539,4568.974121,4441.025879,2446,1,32,,,,0,4,0,2,4,4,2,4,0,4,4,4,4,4,4,16.666666,,,,,,,,,,,,,,,,,,,,,,,,,,,,,,,,,,,,,,,,,,,,,,,,,,,,,,,,,,,
1783161108,1783161108,221,0,3880.641113,4228.205078,4345.897461,4471.794922,3486.281982,4239.230957,4361.538574,4293.717773,4323.589844,3771.153809,4962.563965,4931.282227,4575.384766,4448.461426,2314,1,32,,,,0,4,0,2,4,4,2,4,0,4,4,4,4,4,4,16.666666,,,,,,,,,,,,,,,,,,,,,,,,,,,,,,,,,,,,,,,,,,,,,,,,,,,,,,,,,,,
1783161108,1783161108,222,0,3879.358887,4225.512695,4345.256348,4472.820313,3490.128174,4241.666504,4363.717773,4289.230957,4332.436035,3780.512939,4966.666504,4932.692383,4582.436035,4458.846191,2506,1,32,,,,0,4,0,2,4,4,2,4,0,4,4,4,4,4,4,16.666666,,,,,,,,,,,,,,,,,,,,,,,,,,,,,,,,,,,,,,,,,,,,,,,,,,,,,,,,,,,
1783161108,1783161108,223,0,3880.897461,4227.05127,4357.692383,4473.461426,3498.589844,4253.589844,4366.282227,4297.436035,4338.846191,3790.128174,4973.974121,4937.94873,4585.256348,4467.692383,2668,1,32,,,,0,4,0,2,4,4,2,4,0,4,4,4,4,4,4,16.666666,,,,,,,,,,,,,,,,,,,,,,,,,,,,,,,,,,,,,,,,,,,,,,,,,,,,,,,,,,,
1783161108,1783161108,224,0,3879.230713,4230.512695,4368.846191,4471.794922,3506.410156,4269.230957,4367.05127,4309.358887,4339.230957,3795.769287,4975.897461,4940.897461,4582.05127,4472.563965,2446,1,32,,,,0,4,0,2,4,4,2,4,0,4,4,4,4,4,4,16.666666,,,,,,,,,,,,,,,,,,,,,,,,,,,,,,,,,,,,,,,,,,,,,,,,28,0,0.503996,-0.449829,-0.628479,-0.385559,0.928336,0.048834,-0.260286,-2.316511,-44.732834,20.45363
1783161108,1783161108,225,0,3872.94873,4232.820313,4366.794922,4468.846191,3510,4280.128418,4365,4312.692383,4335,3797.307617,4969.871582,4938.589844,4575.256348,4474.230957,2314,1,32,,,,0,4,0,2,4,4,2,4,0,4,4,4,4,4,4,16.666666,,,,,,,,,,,,,,,,,,,,,,,,,,,,,,,,,,,,,,,,,,,,,,,,,,,,,,,,,,,
1783161108,1783161108,226,0,3865,4232.05127,4351.153809,4467.307617,3509.358887,4281.666504,4359.743652,4301.794922,4329.615234,3798.589844,4960,4931.666504,4569.230957,4476.282227,2506,1,32,,,,0,4,0,2,4,4,2,4,0,4,4,4,4,4,4,16.666666,,,,,,,,,,,,,,,,,,,,,,,,,,,,,,,,,,,,,,,,,,,,,,,,,,,,,,,,,,,
1783161108,1783161108,227,0,3859.358887,4229.487305,4332.436035,4469.230957,3507.692383,4276.282227,4351.922852,4283.717773,4323.077148,3802.179443,4952.05127,4923.461426,4565.256348,4480.897461,2668,1,32,,,,0,4,0,2,4,4,2,4,0,4,4,4,4,4,4,16.666666,,,,,,,,,,,,,,,,,,,,,,,,,,,,,,,,,,,,,,,,,,,,,,,,,,,,,,,,,,,
1783161108,1783161108,228,0,3857.692383,4227.692383,4323.974121,4473.205078,3509.743652,4271.410156,4345,4272.563965,4313.974121,3808.333252,4947.820313,4917.94873,4561.794922,4488.077148,2446,1,32,,,,0,4,0,2,4,4,2,4,0,4,4,4,4,4,4,16.666666,,,,,,,,,,,,,,,,,,,,,,,,,,,,,,,,,,,,,,,,,,,,,,,,,,,,,,,,,,,
1783161108,1783161108,229,0,3858.974365,4228.333496,4332.563965,4477.307617,3520.128174,4273.846191,4343.974121,4278.589844,4304.358887,3816.410156,4945.384766,4918.205078,4557.563965,4496.538574,2314,1,32,,,,0,4,0,2,4,4,2,4,0,4,4,4,4,4,4,16.666666,,,,,,,,,,,,,,,,,,,,,,,,,,,,,,,,,,,,,,,,,,,,,,,,,,,,,,,,,,,
1783161108,1783161108,230,0,3862.94873,4230.641113,4352.94873,4482.179688,3541.153809,4283.846191,4351.153809,4297.94873,4300.256348,3826.923096,4944.487305,4924.358887,4556.410156,4506.922852,2506,1,32,,,,0,4,0,2,4,4,2,4,0,4,4,4,4,4,4,16.666666,,,,,,,,,,,,,,,,,,,,,,,,,,,,,,,,,,,,,,,,,,,,,,,,,,,,,,,,,,,
1783161108,1783161108,231,0,3871.538574,4231.666504,4371.153809,4491.666504,3571.923096,4294.743652,4363.333496,4315.256348,4306.922852,3843.076904,4948.589844,4933.077148,4565.128418,4521.153809,2668,1,32,,,,0,4,0,2,4,4,2,4,0,4,4,4,4,4,4,16.666666,,,,,,,,,,,,,,,,,,,,,,,,,,,,,,,,,,,,,,,,,,,,,,,,,,,,,,,,,,,
1783161108,1783161108,232,0,3886.153809,4229.487305,4375.128418,4509.102539,3606.538574,4299.230957,4373.589844,4316.025879,4323.205078,3867.179443,4960.897461,4940.384766,4587.307617,4540.384766,2446,1,32,,,,0,4,0,2,4,4,2,4,0,4,4,4,4,4,4,16.666666,,,,,,,,,,,,,,,,,,,,,,,,,,,,,,,,,,,,,,,,,,,,,,,,29,0,0.491994,-0.465454,-0.62262,-0.391968,0.883897,0.065926,-0.249054,-2.268193,-44.842884,19.758268
1783161108,1783161108,233,0,3905.384521,4225,4364.487305,4531.922852,3637.307617,4296.153809,4377.307617,4298.974121,4342.307617,3896.794922,4981.025879,4945.128418,4618.974121,4562.179688,2314,1,32,,,,0,4,0,2,4,4,2,4,0,4,4,4,4,4,4,16.666666,,,,,,,,,,,,,,,,,,,,,,,,,,,,,,,,,,,,,,,,,,,,,,,,,,,,,,,,,,,
1783161108,1783161108,234,0,3923.846191,4221.666504,4350.512695,4552.179688,3658.846191,4291.025879,4377.563965,4277.820313,4355.897461,3923.718018,5003.846191,4949.102539,4648.205078,4581.410156,2506,1,32,,,,0,4,0,2,4,4,2,4,0,4,4,4,4,4,4,16.666666,,,,,,,,,,,,,,,,,,,,,,,,,,,,,,,,,,,,,,,,,,,,,,,,,,,,,,,,,,,
1783161108,1783161108,235,0,3935.256348,4222.436035,4347.94873,4561.153809,3670.897461,4291.538574,4381.666504,4270.256348,4359.102539,3938.076904,5023.589844,4954.615234,4664.358887,4593.077148,2668,1,32,,,,0,4,0,2,4,4,2,4,0,4,4,4,4,4,4,16.666666,,,,,,,,,,,,,,,,,,,,,,,,,,,,,,,,,,,,,,,,,,,,,,,,,,,,,,,,,,,
1783161108,1783161108,236,0,3937.564209,4227.05127,4361.410156,4556.538574,3678.589844,4299.615234,4394.615234,4283.333496,4354.230957,3936.410156,5035.769043,4961.025879,4665.384766,4596.025879,2446,1,32,,,,0,4,0,2,4,4,2,4,0,4,4,4,4,4,4,16.666666,,,,,,,,,,,,,,,,,,,,,,,,,,,,,,,,,,,,,,,,,,,,,,,,,,,,,,,,,,,
1783161108,1783161108,237,0,3934.871826,4232.179688,4381.538574,4544.615234,3688.589844,4310.769043,4413.333496,4307.179688,4348.461426,3925.128174,5039.358887,4964.487305,4659.487305,4593.846191,2314,1,32,,,,0,4,0,2,4,4,2,4,0,4,4,4,4,4,4,16.666666,,,,,,,,,,,,,,,,,,,,,,,,,,,,,,,,,,,,,,,,,,,,,,,,,,,,,,,,,,,
1783161108,1783161108,238,0,3932.94873,4234.358887,4392.436035,4535.641113,3704.743652,4316.538574,4428.717773,4323.974121,4349.487305,3917.820557,5036.538574,4961.025879,4657.692383,4592.436035,2506,1,32,,,,0,4,0,2,4,4,2,4,0,4,4,4,4,4,4,16.666666,,,,,,,,,,,,,,,,,,,,,,,,,,,,,,,,,,,,,,,,,,,,,,,,,,,,,,,,,,,
1783161108,1783161108,239,0,3934.871826,4232.05127,4384.358887,4534.230957,3725.512939,4312.179688,4433.333496,4322.436035,4358.846191,3923.718018,5030.641113,4949.743652,4664.358887,4594.358887,2668,1,32,,,,0,4,0,2,4,4,2,4,0,4,4,4,4,4,4,16.666666,,,,,,,,,,,,,,,,,,,,,,,,,,,,,,,,,,,,,,,,,,,,,,,,,,,,,,,,,,,
1783161108,1783161108,240,0,3938.718018,4227.179688,4362.307617,4536.282227,3745.128174,4301.153809,4428.077148,4306.922852,4371.153809,3941.153809,5023.461426,4935.128418,4675.128418,4596.922852,2446,1,32,,,,0,4,0,2,4,4,2,4,0,4,4,4,4,4,4,16.666666,,,,,,,,,,,,,,,,,,,,,,,,,,,,,,,,,,,,,,,,,,,,,,,,30,0,0.484473,-0.473694,-0.618652,-0.397705,0.95959,0.087413,-0.252961,-2.00804,-44.808598,19.099108
1783161108,1783161108,241,0,3940.384521,4223.717773,4341.666504,4533.205078,3758.461426,4292.692383,4421.794922,4292.436035,4379.615234,3958.974365,5016.410156,4924.871582,4682.436035,4595.384766,2314,1,32,,,,0,4,0,2,4,4,2,4,0,4,4,4,4,4,4,16.666666,,,,,,,,,,,,,,,,,,,,,,,,,,,,,,,,,,,,,,,,,,,,,,,,,,,,,,,,,,,
1783161108,1783161108,242,0,3939.230713,4224.615234,4335.769043,4522.436035,3766.410156,4293.846191,4422.94873,4291.922852,4382.563965,3967.435791,5012.820313,4925,4684.358887,4588.077148,2506,1,32,,,,0,4,0,2,4,4,2,4,0,4,4,4,4,4,4,16.666666,,,,,,,,,,,,,,,,,,,,,,,,,,,,,,,,,,,,,,,,,,,,,,,,,,,,,,,,,,,
1783161108,1783161108,243,0,3938.333252,4230,4346.538574,4511.538574,3775,4303.589844,4431.282227,4305.897461,4383.205078,3965.512939,5018.589844,4936.025879,4684.615234,4578.205078,2668,1,32,,,,0,4,0,2,4,4,2,4,0,4,4,4,4,4,4,16.666666,,,,,,,,,,,,,,,,,,,,,,,,,,,,,,,,,,,,,,,,,,,,,,,,,,,,,,,,,,,
1783161108,1783161108,244,0,3941.410156,4236.153809,4363.205078,4510.256348,3789.871826,4313.717773,4437.436035,4323.205078,4384.743652,3959.102539,5035.256348,4950.128418,4686.666504,4569.230957,2446,1,32,,,,0,4,0,2,4,4,2,4,0,4,4,4,4,4,4,16.666666,,,,,,,,,,,,,,,,,,,,,,,,,,,,,,,,,,,,,,,,,,,,,,,,,,,,,,,,,,,
1783161108,1783161108,245,0,3946.666748,4239.230957,4371.794922,4520.128418,3810.256348,4314.743652,4430.769043,4330.512695,4385.897461,3952.94873,5053.205078,4955.641113,4687.94873,4560.769043,2314,1,32,,,,0,4,0,2,4,4,2,4,0,4,4,4,4,4,4,16.666666,,,,,,,,,,,,,,,,,,,,,,,,,,,,,,,,,,,,,,,,,,,,,,,,,,,,,,,,,,,
1783161108,1783161108,246,0,3948.333252,4237.692383,4366.538574,4530.384766,3828.333252,4304.615234,4410.128418,4323.077148,4382.692383,3947.179443,5057.307617,4945.256348,4682.563965,4548.846191,2506,1,32,,,,0,4,0,2,4,4,2,4,0,4,4,4,4,4,4,16.666666,,,,,,,,,,,,,,,,,,,,,,,,,,,,,,,,,,,,,,,,,,,,,,,,,,,,,,,,,,,
1783161108,1783161108,247,0,3940.897461,4233.717773,4352.94873,4527.436035,3836.025635,4289.230957,4386.282227,4308.717773,4373.589844,3939.743652,5039.871582,4921.794922,4667.692383,4530.256348,2668,1,32,,,,0,4,0,2,4,4,2,4,0,4,4,4,4,4,4,16.666666,,,,,,,,,,,,,,,,,,,,,,,,,,,,,,,,,,,,,,,,,,,,,,,,,,,,,,,,,,,
1783161108,1783161108,248,0,3925.128174,4231.410156,4341.794922,4506.666504,3830.769287,4278.077148,4373.589844,4301.153809,4361.794922,3930.512939,5007.692383,4896.794922,4647.179688,4506.410156,2446,1,32,,,,0,4,0,2,4,4,2,4,0,4,4,4,4,4,4,16.666666,,,,,,,,,,,,,,,,,,,,,,,,,,,,,,,,,,,,,,,,,,,,,,,,31,0,0.477701,-0.480835,-0.614441,-0.403809,0.973752,0.09718,-0.249054,-1.907236,-44.994404,18.289198
1783161108,1783161108,249,0,3908.076904,4232.820313,4339.102539,4477.563965,3817.692383,4276.666504,4377.820313,4308.077148,4352.307617,3921.281982,4976.666504,4881.153809,4628.846191,4482.436035,2314,1,32,,,,0,4,0,2,4,4,2,4,0,4,4,4,4,4,4,16.666666,,,,,,,,,,,,,,,,,,,,,,,,,,,,,,,,,,,,,,,,,,,,,,,,,,,,,,,,,,,
1783161108,1783161108,250,0,3898.718018,4237.05127,4342.307617,4456.025879,3806.794922,4281.538574,4391.666504,4323.974121,4346.538574,3914.230713,4960.256348,4877.820313,4618.974121,4463.717773,2506,1,32,,,,0,4,0,2,4,4,2,4,0,4,4,4,4,4,4,16.666666,,,,,,,,,,,,,,,,,,,,,,,,,,,,,,,,,,,,,,,,,,,,,,,,,,,,,,,,,,,
1783161108,1783161108,251,0,3901.153809,4240.128418,4343.974121,4452.563965,3805.641113,4284.358887,4400.641113,4334.358887,4341.153809,3909.358887,4961.153809,4881.025879,4618.205078,4452.692383,2668,1,32,,,,0,4,0,2,4,4,2,4,0,4,4,4,4,4,4,16.666666,,,,,,,,,,,,,,,,,,,,,,,,,,,,,,,,,,,,,,,,,,,,,,,,,,,,,,,,,,,
1783161108,1783161108,252,0,3911.923096,4239.230957,4339.615234,4465.384766,3814.871826,4278.333496,4395.256348,4329.230957,4331.666504,3905.512939,4971.666504,4883.205078,4622.05127,4447.692383,2446,1,32,,,,0,4,0,2,4,4,2,4,0,4,4,4,4,4,4,16.666666,,,,,,,,,,,,,,,,,,,,,,,,,,,,,,,,,,,,,,,,,,,,,,,,,,,,,,,,,,,
1783161108,1783161108,253,0,3922.564209,4235.128418,4331.666504,4482.179688,3827.435791,4264.487305,4378.974121,4313.077148,4318.077148,3901.410156,4980.128418,4881.282227,4623.717773,4445.256348,2314,1,32,,,,0,4,0,2,4,4,2,4,0,4,4,4,4,4,4,16.666666,,,,,,,,,,,,,,,,,,,,,,,,,,,,,,,,,,,,,,,,,,,,,,,,,,,,,,,,,,,
1783161108,1783161108,254,0,3925.641113,4231.538574,4327.563965,4490,3834.102539,4250.897461,4364.615234,4301.794922,4305.897461,3896.153809,4979.487305,4878.846191,4618.974121,4442.692383,2506,1,32,,,,0,4,0,2,4,4,2,4,0,4,4,4,4,4,4,16.666666,,,,,,,,,,,,,,,,,,,,,,,,,,,,,,,,,,,,,,,,,,,,,,,,,,,,,,,,,,,
1783161108,1783161108,255,0,3921.025635,4232.05127,4333.846191,4485.641113,3830.897461,4246.025879,4364.487305,4309.102539,4301.922852,3891.025635,4971.282227,4881.410156,4609.230957,4439.487305,32,1,32,,,,0,4,0,2,4,4,2,4,0,4,4,4,4,4,4,16.666666,,,,,,,,,,,,,,,,,,,,,,,,,,,,,,,,,,,,,,,,,,,,,,,,,,,,,,,,,,,
1783161108,1783161108,0,0,3915.384521,4237.307617,4349.743652,4476.794922,3820.897461,4252.820313,4380.384766,4332.436035,4309.102539,3889.871826,4962.94873,4890,4600.256348,4437.820313,1351,1,32,,,,0,4,0,2,4,4,2,4,0,4,4,4,4,4,4,16.666666,,,,,,,,,,,,,,,,,,,,,,,,,,,,,,,,,,,,,,,,,,,,,,,,0,0,0.468987,-0.488281,-0.609009,-0.413208,0.945428,0.107435,-0.242217,-1.699846,-44.928295,17.560278
1783161108,1783161108,1,0,3915.897461,4243.077148,4365.128418,4474.743652,3812.05127,4265.512695,4401.794922,4354.230957,4324.230957,3896.025635,4960.384766,4899.102539,4597.692383,4439.871582,2421,1,32,,,,0,4,0,2,4,4,2,4,0,4,4,4,4,4,4,16.666666,,,,,,,,,,,,,,,,,,,,,,,,,,,,,,,,,,,,,,,,,,,,,,,,,,,,,,,,,,,
1783161108,1783161108,2,0,3925.641113,4243.974121,4367.820313,4484.358887,3810.641113,4274.871582,4414.743652,4355.384766,4340.769043,3910.128174,4963.974121,4901.538574,4602.94873,4447.05127,2625,1,32,,,,0,4,0,2,4,4,2,4,0,4,4,4,4,4,4,16.666666,,,,,,,,,,,,,,,,,,,,,,,,,,,,,,,,,,,,,,,,,,,,,,,,,,,,,,,,,,,
1783161108,1783161108,3,0,3941.153809,4238.077148,4354.871582,4501.153809,3816.538574,4275.128418,4412.179688,4332.94873,4352.94873,3928.333252,4968.846191,4895.769043,4612.692383,4458.461426,0,1,32,,,,0,4,0,2,4,4,2,4,0,4,4,4,4,4,4,16.666666,,,,,,,,,,,,,,,,,,,,,,,,,,,,,,,,,,,,,,,,,,,,,,,,,,,,,,,,,,,
1783161108,1783161108,4,0,3956.666748,4228.717773,4336.794922,4515,3824.102539,4268.461426,4399.230957,4302.820313,4358.077148,3944.358887,4970.769043,4887.436035,4621.153809,4472.05127,2586,1,32,,,,0,4,0,2,4,4,2,4,0,4,4,4,4,4,4,16.666666,,,,,,,,,,,,,,,,,,,,,,,,,,,,,,,,,,,,,,,,,,,,,,,,,,,,,,,,,,,
1783161108,1783161108,5,0,3966.410156,4222.307617,4328.205078,4518.077148,3826.025635,4262.05127,4388.333496,4286.282227,4356.666504,3953.205078,4969.743652,4882.820313,4623.589844,4484.743652,903,1,32,,,,0,4,0,2,4,4,2,4,0,4,4,4,4,4,4,16.666666,,,,,,,,,,,,,,,,,,,,,,,,,,,,,,,,,,,,,,,,,,,,,,,,,,,,,,,,,,,
1783161108,1783161108,6,0,3967.692383,4223.205078,4335.384766,4509.487305,3819.230713,4261.282227,4387.692383,4293.333496,4351.794922,3952.564209,4969.230957,4883.205078,4617.563965,4492.307617,1863,1,32,,,,0,4,0,2,4,4,2,4,0,4,4,4,4,4,4,16.666666,,,,,,,,,,,,,,,,,,,,,,,,,,,,,,,,,,,,,,,,,,,,,,,,,,,,,,,,,,,
1783161108,1783161108,7,0,3961.281982,4230,4349.230957,4494.358887,3806.025635,4265.512695,4396.153809,4315.256348,4347.820313,3945.256348,4971.282227,4883.205078,4603.717773,4490.641113,0,1,32,,,,0,4,0,2,4,4,2,4,0,4,4,4,4,4,4,16.666666,,,,,,,,,,,,,,,,,,,,,,,,,,,,,,,,,,,,,,,,,,,,,,,,,,,,,,,,,,,
1783161108,1783161108,8,0,3951.281982,4237.05127,4354.487305,4478.589844,3791.666748,4270.128418,4405.384766,4333.717773,4347.94873,3936.410156,4973.589844,4876.922852,4586.025879,4478.589844,2384,1,32,,,,0,4,0,2,4,4,2,4,0,4,4,4,4,4,4,16.666666,,,,,,,,,,,,,,,,,,,,,,,,,,,,,,,,,,,,,,,,,,,,,,,,1,0,0.464107,-0.492554,-0.604614,-0.420044,1.000122,0.069344,-0.204615,-1.713195,-44.902134,16.787582
1783161108,1783161108,9,0,3942.820557,4239.102539,4343.461426,4466.153809,3780.256348,4271.794922,4408.077148,4336.282227,4351.025879,3930.769287,4971.794922,4863.717773,4568.974121,4460,2511,1,32,,,,0,4,0,2,4,4,2,4,0,4,4,4,4,4,4,16.666666,,,,,,,,,,,,,,,,,,,,,,,,,,,,,,,,,,,,,,,,,,,,,,,,,,,,,,,,,,,
1783161108,1783161108,10,0,3940.384521,4235.769043,4322.94873,4459.358887,3772.94873,4270.256348,4402.563965,4323.717773,4351.922852,3929.871826,4963.717773,4849.102539,4555.769043,4443.461426,2588,1,32,,,,0,4,0,2,4,4,2,4,0,4,4,4,4,4,4,16.666666,,,,,,,,,,,,,,,,,,,,,,,,,,,,,,,,,,,,,,,,,,,,,,,,,,,,,,,,,,,
1783161108,1783161108,11,0,3945.512939,4231.538574,4308.461426,4458.846191,3769.102539,4268.205078,4393.077148,4307.94873,4346.025879,3931.281982,4953.846191,4839.487305,4546.282227,4437.05127,2626,1,32,,,,0,4,0,2,4,4,2,4,0,4,4,4,4,4,4,16.666666,,,,,,,,,,,,,,,,,,,,,,,,,,,,,,,,,,,,,,,,,,,,,,,,,,,,,,,,,,,
1783161108,1783161108,12,0,3955.512939,4231.153809,4311.282227,4464.102539,3767.564209,4267.692383,4385.769043,4300.897461,4334.358887,3931.666748,4948.974121,4838.461426,4539.102539,4444.230957,2526,1,32,,,,0,4,0,2,4,4,2,4,0,4,4,4,4,4,4,16.666666,,,,,,,,,,,,,,,,,,,,,,,,,,,,,,,,,,,,,,,,,,,,,,,,,,,,,,,,,,,
1783161108,1783161108,13,0,3966.538574,4235.128418,4328.846191,4472.820313,3768.589844,4268.333496,4385.128418,4305.897461,4325.256348,3930,4952.05127,4844.358887,4534.102539,4462.94873,2379,1,32,,,,0,4,0,2,4,4,2,4,0,4,4,4,4,4,4,16.666666,,,,,,,,,,,,,,,,,,,,,,,,,,,,,,,,,,,,,,,,,,,,,,,,,,,,,,,,,,,
1783161108,1783161108,14,0,3976.666748,4239.358887,4348.333496,4481.410156,3772.820557,4268.205078,4391.025879,4316.282227,4327.94873,3928.974365,4959.743652,4852.563965,4532.692383,4487.692383,2588,1,32,,,,0,4,0,2,4,4,2,4,0,4,4,4,4,4,4,16.666666,,,,,,,,,,,,,,,,,,,,,,,,,,,,,,,,,,,,,,,,,,,,,,,,,,,,,,,,,,,
1783161108,1783161108,15,0,3986.281982,4239.487305,4357.179688,4487.307617,3779.102539,4266.282227,4399.487305,4322.563965,4343.846191,3930.769287,4964.230957,4858.589844,4535.384766,4512.563965,2626,1,32,,,,0,4,0,2,4,4,2,4,0,4,4,4,4,4,4,16.666666,,,,,,,,,,,,,,,,,,,,,,,,,,,,,,,,,,,,,,,,,,,,,,,,,,,,,,,,,,,
1783161108,1783161108,16,0,3995.769287,4234.871582,4352.563965,4489.615234,3785.128174,4263.589844,4406.538574,4320.384766,4364.358887,3934.230713,4959.871582,4860.256348,4538.846191,4532.820313,2526,1,32,,,,0,4,0,2,4,4,2,4,0,4,4,4,4,4,4,16.666666,,,,,,,,,,,,,,,,,,,,,,,,,,,,,,,,,,,,,,,,,,,,,,,,2,0,0.456347,-0.499512,-0.597473,-0.43042,0.984007,0.050787,-0.199243,-1.508542,-44.778587,16.108824
1783161108,1783161108,17,0,4003.205078,4229.487305,4342.05127,4489.743652,3788.076904,4262.94873,4410.512695,4313.717773,4376.794922,3934.487061,4948.077148,4858.846191,4537.436035,4545.512695,2379,1,32,,,,0,4,0,2,4,4,2,4,0,4,4,4,4,4,4,16.666666,,,,,,,,,,,,,,,,,,,,,,,,,,,,,,,,,,,,,,,,,,,,,,,,,,,,,,,,,,,
1783161108,1783161108,18,0,4005.256348,4228.333496,4337.05127,4490,3787.564209,4266.025879,4411.922852,4310.256348,4373.589844,3928.205078,4937.94873,4858.205078,4528.461426,4549.871582,2588,1,32,,,,0,4,0,2,4,4,2,4,0,4,4,4,4,4,4,16.666666,,,,,,,,,,,,,,,,,,,,,,,,,,,,,,,,,,,,,,,,,,,,,,,,,,,,,,,,,,,
1783161108,1783161108,19,0,4000.256348,4232.563965,4342.307617,4492.692383,3786.025635,4271.922852,4411.538574,4314.871582,4358.461426,3917.05127,4938.974121,4862.563965,4516.282227,4549.102539,2626,1,32,,,,0,4,0,2,4,4,2,4,0,4,4,4,4,4,4,16.666666,,,,,,,,,,,,,,,,,,,,,,,,,,,,,,,,,,,,,,,,,,,,,,,,,,,,,,,,,,,
1783161108,1783161108,20,0,3991.025635,4239.230957,4352.05127,4499.102539,3787.820557,4277.436035,4408.974121,4324.615234,4343.589844,3909.102539,4952.692383,4873.974121,4509.230957,4548.974121,2526,1,32,,,,0,4,0,2,4,4,2,4,0,4,4,4,4,4,4,16.666666,,,,,,,,,,,,,,,,,,,,,,,,,,,,,,,,,,,,,,,,,,,,,,,,,,,,,,,,,,,
1783161108,1783161108,21,0,3983.205078,4242.820313,4356.025879,4508.205078,3795.769287,4278.974121,4404.102539,4330.897461,4339.871582,3912.179443,4970.384766,4888.974121,4512.692383,4555.641113,2379,1,32,,,,0,4,0,2,4,4,2,4,0,4,4,4,4,4,4,16.666666,,,,,,,,,,,,,,,,,,,,,,,,,,,,,,,,,,,,,,,,,,,,,,,,,,,,,,,,,,,
1783161108,1783161108,22,0,3982.05127,4240.641113,4348.077148,4516.794922,3808.589844,4275.256348,4398.333496,4326.025879,4349.230957,3928.076904,4979.487305,4900,4523.717773,4570.769043,2588,1,32,,,,0,4,0,2,4,4,2,4,0,4,4,4,4,4,4,16.666666,,,,,,,,,,,,,,,,,,,,,,,,,,,,,,,,,,,,,,,,,,,,,,,,,,,,,,,,,,,
1783161108,1783161108,23,0,3988.205078,4234.358887,4333.077148,4520.897461,3822.179443,4268.717773,4393.846191,4310.384766,4363.589844,3949.230713,4972.820313,4899.358887,4532.436035,4589.743652,2626,1,32,,,,0,4,0,2,4,4,2,4,0,4,4,4,4,4,4,16.666666,,,,,,,,,,,,,,,,,,,,,,,,,,,,,,,,,,,,,,,,,,,,,,,,,,,,,,,,,,,
1783161108,1783161108,24,0,3996.923096,4228.461426,4322.436035,4517.94873,3832.179443,4264.102539,4392.820313,4293.717773,4372.692383,3962.564209,4953.589844,4884.230957,4529.102539,4603.717773,2526,1,32,,,,0,4,0,2,4,4,2,4,0,4,4,4,4,4,4,16.666666,,,,,,,,,,,,,,,,,,,,,,,,,,,,,,,,,,,,,,,,,,,,,,,,3,0,0.45073,-0.504089,-0.591919,-0.438599,0.933708,0.047369,-0.182639,-1.541021,-44.767395,15.481276
1783161108,1783161108,25,0,4001.666748,4227.179688,4325.128418,4508.589844,3837.94873,4265.384766,4395.769043,4287.820313,4371.538574,3959.102539,4932.05127,4859.230957,4511.025879,4605.641113,2379,1,32,,,,0,4,0,2,4,4,2,4,0,4,4,4,4,4,4,16.666666,,,,,,,,,,,,,,,,,,,,,,,,,,,,,,,,,,,,,,,,,,,,,,,,,,,,,,,,,,,
1783161108,1783161108,26,0,3999.102539,4230.384766,4339.743652,4496.922852,3843.846191,4272.692383,4400.641113,4296.153809,4363.846191,3941.538574,4919.743652,4833.461426,4486.025879,4596.666504,2588,1,32,,,,0,4,0,2,4,4,2,4,0,4,4,4,4,4,4,16.666666,,,,,,,,,,,,,,,,,,,,,,,,,,,,,,,,,,,,,,,,,,,,,,,,,,,,,,,,,,,
1783161108,1783161108,27,0,3992.820557,4234.358887,4355.641113,4489.487305,3856.025635,4282.436035,4403.205078,4310.384766,4356.153809,3923.461426,4921.794922,4814.615234,4466.538574,4586.282227,2626,1,32,,,,0,4,0,2,4,4,2,4,0,4,4,4,4,4,4,16.666666,,,,,,,,,,,,,,,,,,,,,,,,,,,,,,,,,,,,,,,,,,,,,,,,,,,,,,,,,,,
1783161108,1783161108,28,0,3990,4234.743652,4361.153809,4490,3875.897461,4289.487305,4399.230957,4316.538574,4351.666504,3919.230713,4933.205078,4805,4460.897461,4585.769043,2526,1,32,,,,0,4,0,2,4,4,2,4,0,4,4,4,4,4,4,16.666666,,,,,,,,,,,,,,,,,,,,,,,,,,,,,,,,,,,,,,,,,,,,,,,,,,,,,,,,,,,
1783161108,1783161108,29,0,3995.256348,4230.641113,4352.820313,4496.922852,3898.205078,4290.641113,4388.461426,4308.077148,4348.717773,3932.05127,4942.94873,4801.922852,4466.922852,4598.846191,2379,1,32,,,,0,4,0,2,4,4,2,4,0,4,4,4,4,4,4,16.666666,,,,,,,,,,,,,,,,,,,,,,,,,,,,,,,,,,,,,,,,,,,,,,,,,,,,,,,,,,,
1783161108,1783161108,30,0,4005.897461,4224.615234,4338.461426,4503.846191,3915,4285.897461,4375.641113,4291.410156,4344.358887,3952.307617,4941.410156,4801.922852,4474.871582,4619.102539,2588,1,32,,,,0,4,0,2,4,4,2,4,0,4,4,4,4,4,4,16.666666,,,,,,,,,,,,,,,,,,,,,,,,,,,,,,,,,,,,,,,,,,,,,,,,,,,,,,,,,,,
1783161108,1783161108,31,0,4014.487061,4220.897461,4329.871582,4503.461426,3922.05127,4279.615234,4368.589844,4280.384766,4338.461426,3965.512939,4928.589844,4803.589844,4476.025879,4634.615234,2626,1,32,,,,0,4,0,2,4,4,2,4,0,4,4,4,4,4,4,16.666666,,,,,,,,,,,,,,,,,,,,,,,,,,,,,,,,,,,,,,,,,,,,,,,,,,,,,,,,,,,
1783161108,1783161108,32,0,4014.743652,4221.922852,4332.94873,4493.205078,3922.692383,4276.282227,4371.666504,4283.077148,4333.846191,3964.230713,4912.307617,4806.794922,4468.974121,4636.794922,0,1,32,,,,0,4,0,2,4,4,2,4,0,4,4,4,4,4,4,16.666666,,,,,,,,,,,,,,,,,,,,,,,,,,,,,,,,,,,,,,,,,,,,,,,,4,0,0.444373,-0.508606,-0.58551,-0.448364,0.934684,0.048346,-0.163594,-1.353586,-44.690655,14.966481
1783161108,1783161108,33,0,4007.05127,4226.538574,4343.077148,4478.077148,3925.641113,4276.922852,4380.641113,4295.769043,4332.563965,3953.205078,4902.436035,4810.641113,4460.128418,4626.410156,0,1,32,,,,0,4,0,2,4,4,2,4,0,4,4,4,4,4,4,16.666666,,,,,,,,,,,,,,,,,,,,,,,,,,,,,,,,,,,,,,,,,,,,,,,,,,,,,,,,,,,
1783161108,1783161108,34,0,3998.461426,4231.538574,4350.897461,4467.307617,3938.333252,4278.461426,4385.512695,4306.538574,4333.846191,3944.358887,4904.871582,4813.077148,4457.307617,4613.589844,0,1,32,,,,0,4,0,2,4,4,2,4,0,4,4,4,4,4,4,16.666666,,,,,,,,,,,,,,,,,,,,,,,,,,,,,,,,,,,,,,,,,,,,,,,,,,,,,,,,,,,
1783161108,1783161108,35,0,3996.923096,4233.333496,4350.128418,4468.077148,3961.666748,4276.538574,4379.230957,4306.025879,4335.256348,3947.179443,4917.436035,4812.307617,4463.461426,4610.128418,0,1,32,,,,0,4,0,2,4,4,2,4,0,4,4,4,4,4,4,16.666666,,,,,,,,,,,,,,,,,,,,,,,,,,,,,,,,,,,,,,,,,,,,,,,,,,,,,,,,,,,
1783161108,1783161108,36,0,4004.230713,4231.025879,4342.563965,4479.102539,3989.358887,4270.641113,4364.102539,4295.128418,4335,3961.153809,4930.512695,4808.077148,4473.461426,4620.256348,0,1,32,,,,0,4,0,2,4,4,2,4,0,4,4,4,4,4,4,16.666666,,,,,,,,,,,,,,,,,,,,,,,,,,,,,,,,,,,,,,,,,,,,,,,,,,,,,,,,,,,
1783161108,1783161108,37,0,4014.358887,4226.922852,4335.897461,4491.153809,4011.538574,4265.384766,4350.512695,4283.333496,4332.563965,3975.769287,4933.205078,4801.410156,4478.589844,4637.563965,0,1,32,,,,0,4,0,2,4,4,2,4,0,4,4,4,4,4,4,16.666666,,,,,,,,,,,,,,,,,,,,,,,,,,,,,,,,,,,,,,,,,,,,,,,,,,,,,,,,,,,
1783161108,1783161108,38,0,4019.102539,4224.743652,4336.153809,4495.769043,4023.333252,4266.538574,4347.436035,4280.256348,4327.563965,3979.743652,4922.94873,4795.512695,4473.846191,4650.384766,0,1,32,,,,0,4,0,2,4,4,2,4,0,4,4,4,4,4,4,16.666666,,,,,,,,,,,,,,,,,,,,,,,,,,,,,,,,,,,,,,,,,,,,,,,,,,,,,,,,,,,
1783161108,1783161108,39,0,4015,4226.282227,4342.820313,4492.436035,4029.615479,4275.256348,4355.256348,4288.205078,4320.897461,3970.384521,4908.077148,4793.717773,4463.333496,4651.794922,0,1,32,,,,0,4,0,2,4,4,2,4,0,4,4,4,4,4,4,16.666666,,,,,,,,,,,,,,,,,,,,,,,,,,,,,,,,,,,,,,,,,,,,,,,,,,,,,,,,,,,
1783161108,1783161108,40,0,4007.307617,4230,4349.871582,4489.230957,4042.307617,4285.512695,4366.025879,4300,4314.871582,3956.410156,4900.512695,4798.077148,4457.436035,4645.384766,0,1,32,,,,0,4,0,2,4,4,2,4,0,4,4,4,4,4,4,16.666666,,,,,,,,,,,,,,,,,,,,,,,,,,,,,,,,,,,,,,,,,,,,,,,,5,0,0.433491,-0.515747,-0.574219,-0.465149,0.942986,0.072274,-0.145526,-1.35156,-44.438255,14.2865
1783161108,1783161108,41,0,4004.743652,4232.05127,4350.897461,4493.974121,4069.615479,4289.487305,4370.512695,4304.615234,4312.05127,3950.384521,4904.358887,4806.282227,4463.205078,4640.897461,0,1,32,,,,0,4,0,2,4,4,2,4,0,4,4,4,4,4,4,16.666666,,,,,,,,,,,,,,,,,,,,,,,,,,,,,,,,,,,,,,,,,,,,,,,,,,,,,,,,,,,
1783161108,1783161108,42,0,4012.435791,4230.256348,4344.743652,4506.410156,4109.102539,4283.589844,4365.512695,4296.025879,4312.820313,3957.692383,4912.563965,4813.205078,4478.205078,4644.871582,0,1,32,,,,0,4,0,2,4,4,2,4,0,4,4,4,4,4,4,16.666666,,,,,,,,,,,,,,,,,,,,,,,,,,,,,,,,,,,,,,,,,,,,,,,,,,,,,,,,,,,
1783161108,1783161108,43,0,4026.666748,4225.512695,4335.641113,4518.205078,4148.333496,4272.692383,4355.512695,4278.717773,4315,3972.179443,4912.820313,4814.487305,4491.025879,4654.615234,0,1,32,,,,0,4,0,2,4,4,2,4,0,4,4,4,4,4,4,16.666666,,,,,,,,,,,,,,,,,,,,,,,,,,,,,,,,,,,,,,,,,,,,,,,,,,,,,,,,,,,
1783161108,1783161108,44,0,4037.179443,4221.666504,4330.384766,4518.846191,4173.717773,4265.641113,4347.94873,4265.769043,4316.153809,3981.538574,4898.589844,4810,4490.256348,4660.641113,0,1,32,,,,0,4,0,2,4,4,2,4,0,4,4,4,4,4,4,16.666666,,,,,,,,,,,,,,,,,,,,,,,,,,,,,,,,,,,,,,,,,,,,,,,,,,,,,,,,,,,
1783161108,1783161108,45,0,4035.128174,4222.179688,4332.94873,4504.102539,4180,4269.358887,4346.410156,4269.102539,4315.128418,3976.923096,4875.128418,4803.461426,4473.205078,4655.384766,0,1,32,,,,0,4,0,2,4,4,2,4,0,4,4,4,4,4,4,16.666666,,,,,,,,,,,,,,,,,,,,,,,,,,,,,,,,,,,,,,,,,,,,,,,,,,,,,,,,,,,
1783161108,1783161108,46,0,4020.384521,4226.922852,4341.538574,4480.641113,4174.871582,4283.846191,4348.589844,4288.333496,4313.333496,3961.025635,4856.922852,4798.589844,4448.846191,4639.230957,0,1,32,,,,0,4,0,2,4,4,2,4,0,4,4,4,4,4,4,16.666666,,,,,,,,,,,,,,,,,,,,,,,,,,,,,,,,,,,,,,,,,,,,,,,,,,,,,,,,,,,
1783161108,1783161108,47,0,4003.718018,4232.692383,4348.974121,4463.205078,4175,4302.307617,4346.666504,4309.487305,4314.102539,3946.410156,4857.692383,4797.179688,4433.077148,4621.794922,0,1,32,,,,0,4,0,2,4,4,2,4,0,4,4,4,4,4,4,16.666666,,,,,,,,,,,,,,,,,,,,,,,,,,,,,,,,,,,,,,,,,,,,,,,,,,,,,,,,,,,
1783161108,1783161108,48,0,3999.615479,4235.128418,4348.077148,4464.615234,4194.871582,4315.256348,4335,4313.974121,4319.871582,3946.923096,4879.615234,4798.461426,4438.077148,4613.461426,0,1,32,,,,0,4,0,2,4,4,2,4,0,4,4,4,4,4,4,16.666666,,,,,,,,,,,,,,,,,,,,,,,,,,,,,,,,,,,,,,,,,,,,,,,,6,0,0.425408,-0.521057,-0.565796,-0.476868,0.97131,0.087413,-0.137712,-1.266404,-44.211098,13.591183
1783161108,1783161108,49,0,4014.615479,4232.179688,4337.179688,4485.384766,4235.641113,4315.897461,4313.974121,4293.717773,4329.358887,3965.512939,4910.897461,4799.871582,4462.436035,4617.307617,0,1,32,,,,0,4,0,2,4,4,2,4,0,4,4,4,4,4,4,16.666666,,,,,,,,,,,,,,,,,,,,,,,,,,,,,,,,,,,,,,,,,,,,,,,,,,,,,,,,,,,
1783161108,1783161108,50,0,4041.410156,4225.512695,4322.179688,4512.179688,4283.589844,4304.487305,4290.512695,4259.230957,4336.922852,3991.794922,4932.94873,4798.717773,4491.410156,4627.179688,0,1,32,,,,0,4,0,2,4,4,2,4,0,4,4,4,4,4,4,16.666666,,,,,,,,,,,,,,,,,,,,,,,,,,,,,,,,,,,,,,,,,,,,,,,,,,,,,,,,,,,
1783161108,1783161108,51,0,4063.205078,4219.358887,4312.94873,4527.05127,4318.974121,4288.846191,4272.05127,4231.025879,4336.025879,4007.94873,4931.538574,4792.307617,4506.025879,4632.179688,0,1,32,,,,0,4,0,2,4,4,2,4,0,4,4,4,4,4,4,16.666666,,,,,,,,,,,,,,,,,,,,,,,,,,,,,,,,,,,,,,,,,,,,,,,,,,,,,,,,,,,
1783161108,1783161108,52,0,4066.281982,4217.563965,4315,4521.153809,4330.512695,4278.461426,4262.692383,4224.487305,4325.128418,4003.718018,4906.794922,4781.153809,4496.666504,4625.256348,0,1,32,,,,0,4,0,2,4,4,2,4,0,4,4,4,4,4,4,16.666666,,,,,,,,,,,,,,,,,,,,,,,,,,,,,,,,,,,,,,,,,,,,,,,,,,,,,,,,,,,
1783161108,1783161108,53,0,4050.641113,4220.512695,4324.871582,4500.769043,4321.922852,4278.589844,4262.05127,4237.307617,4310.769043,3983.974365,4871.666504,4768.846191,4470.128418,4608.205078,0,1,32,,,,0,4,0,2,4,4,2,4,0,4,4,4,4,4,4,16.666666,,,,,,,,,,,,,,,,,,,,,,,,,,,,,,,,,,,,,,,,,,,,,,,,,,,,,,,,,,,
1783161108,1783161108,54,0,4028.974365,4225,4333.717773,4482.692383,4308.589844,4286.666504,4266.922852,4253.589844,4303.974121,3965.128174,4844.615234,4760.897461,4443.974121,4590.384766,0,1,32,,,,0,4,0,2,4,4,2,4,0,4,4,4,4,4,4,16.666666,,,,,,,,,,,,,,,,,,,,,,,,,,,,,,,,,,,,,,,,,,,,,,,,,,,,,,,,,,,
1783161108,1783161108,55,0,4017.692383,4227.436035,4335.256348,4480.641113,4307.179688,4296.025879,4274.230957,4257.94873,4311.794922,3961.153809,4838.077148,4760.897461,4434.487305,4581.410156,0,1,32,,,,0,4,0,2,4,4,2,4,0,4,4,4,4,4,4,16.666666,,,,,,,,,,,,,,,,,,,,,,,,,,,,,,,,,,,,,,,,,,,,,,,,,,,,,,,,,,,
1783161108,1783161108,56,0,4024.615479,4227.05127,4330.769043,4496.282227,4323.846191,4301.282227,4281.153809,4248.077148,4331.538574,3973.589844,4852.05127,4768.333496,4443.974121,4583.461426,0,1,32,,,,0,4,0,2,4,4,2,4,0,4,4,4,4,4,4,16.666666,,,,,,,,,,,,,,,,,,,,,,,,,,,,,,,,,,,,,,,,,,,,,,,,7,0,0.417131,-0.526489,-0.557129,-0.488281,0.992309,0.109877,-0.125015,-1.139764,-43.789986,12.948731
1783161108,1783161108,57,0,4044.487061,4226.538574,4328.205078,4519.230957,4351.922852,4301.025879,4284.871582,4234.230957,4351.794922,3992.435791,4875.128418,4778.717773,4462.05127,4591.153809,0,1,32,,,,0,4,0,2,4,4,2,4,0,4,4,4,4,4,4,16.666666,,,,,,,,,,,,,,,,,,,,,,,,,,,,,,,,,,,,,,,,,,,,,,,,,,,,,,,,,,,
1783161108,1783161108,58,0,4064.871826,4228.333496,4333.461426,4536.538574,4377.692383,4298.205078,4285,4228.846191,4361.410156,4006.410156,4892.179688,4787.307617,4475.256348,4596.025879,0,1,32,,,,0,4,0,2,4,4,2,4,0,4,4,4,4,4,4,16.666666,,,,,,,,,,,,,,,,,,,,,,,,,,,,,,,,,,,,,,,,,,,,,,,,,,,,,,,,,,,
1783161108,1783161108,59,0,4075.128174,4232.05127,4344.871582,4542.179688,4390.256348,4296.922852,4283.717773,4235.128418,4358.333496,4012.564209,4893.589844,4791.794922,4476.794922,4593.846191,0,1,32,,,,0,4,0,2,4,4,2,4,0,4,4,4,4,4,4,16.666666,,,,,,,,,,,,,,,,,,,,,,,,,,,,,,,,,,,,,,,,,,,,,,,,,,,,,,,,,,,
1783161108,1783161108,60,0,4073.205078,4234.871582,4353.974121,4539.358887,4388.974121,4298.846191,4285.128418,4245.641113,4349.871582,4016.025635,4879.743652,4791.538574,4470.384766,4586.922852,0,1,32,,,,0,4,0,2,4,4,2,4,0,4,4,4,4,4,4,16.666666,,,,,,,,,,,,,,,,,,,,,,,,,,,,,,,,,,,,,,,,,,,,,,,,,,,,,,,,,,,
1783161108,1783161108,61,0,4065.897461,4234.487305,4352.820313,4536.282227,4381.794922,4303.205078,4291.282227,4249.615234,4346.410156,4023.846191,4859.230957,4787.563965,4464.358887,4581.666504,0,1,32,,,,0,4,0,2,4,4,2,4,0,4,4,4,4,4,4,16.666666,,,,,,,,,,,,,,,,,,,,,,,,,,,,,,,,,,,,,,,,,,,,,,,,,,,,,,,,,,,
1783161108,1783161108,62,0,4062.94873,4231.282227,4342.307617,4538.717773,4379.743652,4308.461426,4300.769043,4242.692383,4352.94873,4037.692383,4843.461426,4782.05127,4464.230957,4581.794922,0,1,32,,,,0,4,0,2,4,4,2,4,0,4,4,4,4,4,4,16.666666,,,,,,,,,,,,,,,,,,,,,,,,,,,,,,,,,,,,,,,,,,,,,,,,,,,,,,,,,,,
1783161108,1783161108,63,0,4069.358887,4228.205078,4331.922852,4546.922852,4388.974121,4313.205078,4309.743652,4230.641113,4366.282227,4053.205078,4839.743652,4778.077148,4468.974121,4585.512695,0,1,32,,,,0,4,0,2,4,4,2,4,0,4,4,4,4,4,4,16.666666,,,,,,,,,,,,,,,,,,,,,,,,,,,,,,,,,,,,,,,,,,,,,,,,,,,,,,,,,,,
1783161108,1783161108,64,0,4082.179443,4227.820313,4332.307617,4555.641113,4406.538574,4317.05127,4315.384766,4224.230957,4377.563965,4063.205078,4847.820313,4777.436035,4474.102539,4587.436035,0,1,32,,,,0,4,0,2,4,4,2,4,0,4,4,4,4,4,4,16.666666,,,,,,,,,,,,,,,,,,,,,,,,,,,,,,,,,,,,,,,,,,,,,,,,8,0,0.404946,-0.534607,-0.543762,-0.504517,0.979123,0.129899,-0.12062,-1.025788,-43.410988,12.420525
1783161108,1783161108,65,0,4094.102539,4230.769043,4346.410156,4560.641113,4421.666504,4320.769043,4318.461426,4230.128418,4379.358887,4064.743652,4861.538574,4781.025879,4476.025879,4583.077148,0,1,32,,,,0,4,0,2,4,4,2,4,0,4,4,4,4,4,4,16.666666,,,,,,,,,,,,,,,,,,,,,,,,,,,,,,,,,,,,,,,,,,,,,,,,,,,,,,,,,,,
1783161108,1783161108,66,0,4099.871582,4235.128418,4366.922852,4561.794922,4425.769043,4325.128418,4322.05127,4246.153809,4371.922852,4060.769287,4874.743652,4788.205078,4475.769043,4573.974121,0,1,32,,,,0,4,0,2,4,4,2,4,0,4,4,4,4,4,4,16.666666,,,,,,,,,,,,,,,,,,,,,,,,,,,,,,,,,,,,,,,,,,,,,,,,,,,,,,,,,,,
1783161108,1783161108,67,0,4101.282227,4238.461426,4382.05127,4563.589844,4418.846191,4330.128418,4328.205078,4262.05127,4363.589844,4058.205078,4883.846191,4796.666504,4477.05127,4567.05127,0,1,32,,,,0,4,0,2,4,4,2,4,0,4,4,4,4,4,4,16.666666,,,,,,,,,,,,,,,,,,,,,,,,,,,,,,,,,,,,,,,,,,,,,,,,,,,,,,,,,,,
1783161108,1783161108,68,0,4105.256348,4239.358887,4384.615234,4570.512695,4409.743652,4333.974121,4334.743652,4266.666504,4365.128418,4062.307617,4887.179688,4803.077148,4482.436035,4569.487305,0,1,32,,,,0,4,0,2,4,4,2,4,0,4,4,4,4,4,4,16.666666,,,,,,,,,,,,,,,,,,,,,,,,,,,,,,,,,,,,,,,,,,,,,,,,,,,,,,,,,,,
1783161108,1783161108,69,0,4116.538574,4238.077148,4376.153809,4582.307617,4408.077148,4334.615234,4336.922852,4256.410156,4379.743652,4072.564209,4885.769043,4804.743652,4490.641113,4582.692383,0,1,32,,,,0,4,0,2,4,4,2,4,0,4,4,4,4,4,4,16.666666,,,,,,,,,,,,,,,,,,,,,,,,,,,,,,,,,,,,,,,,,,,,,,,,,,,,,,,,,,,
1783161108,1783161108,70,0,4132.94873,4236.025879,4366.153809,4594.615234,4416.153809,4332.05127,4331.794922,4237.563965,4399.743652,4084.743652,4882.692383,4801.666504,4498.333496,4599.230957,0,1,32,,,,0,4,0,2,4,4,2,4,0,4,4,4,4,4,4,16.666666,,,,,,,,,,,,,,,,,,,,,,,,,,,,,,,,,,,,,,,,,,,,,,,,,,,,,,,,,,,
1783161108,1783161108,71,0,4147.05127,4235.256348,4364.615234,4602.179688,4427.563965,4329.230957,4322.563965,4222.94873,4412.94873,4093.974365,4881.025879,4798.077148,4501.538574,4606.538574,0,1,32,,,,0,4,0,2,4,4,2,4,0,4,4,4,4,4,4,16.666666,,,,,,,,,,,,,,,,,,,,,,,,,,,,,,,,,,,,,,,,,,,,,,,,,,,,,,,,,,,
1783161108,1783161108,72,0,4152.436035,4236.794922,4374.615234,4602.179688,4432.563965,4329.358887,4316.794922,4223.077148,4413.717773,4097.436035,4880.512695,4798.205078,4498.077148,4597.563965,0,1,32,,,,0,4,0,2,4,4,2,4,0,4,4,4,4,4,4,16.666666,,,,,,,,,,,,,,,,,,,,,,,,,,,,,,,,,,,,,,,,,,,,,,,,9,0,0.396933,-0.540161,-0.534668,-0.514587,0.970822,0.137224,-0.112807,-1.206542,-43.069889,11.811806
1783161108,1783161108,73,0,4148.974121,4239.743652,4389.615234,4596.794922,4425.641113,4333.589844,4320.512695,4237.436035,4407.179688,4095.384521,4878.461426,4802.307617,4489.102539,4577.05127,0,1,32,,,,0,4,0,2,4,4,2,4,0,4,4,4,4,4,4,16.666666,,,,,,,,,,,,,,,,,,,,,,,,,,,,,,,,,,,,,,,,,,,,,,,,,,,,,,,,,,,
1783161108,1783161108,74,0,4143.077148,4242.563965,4398.589844,4591.794922,4410.512695,4340.384766,4332.692383,4254.871582,4403.461426,4090.384521,4873.333496,4805,4479.487305,4560.128418,0,1,32,,,,0,4,0,2,4,4,2,4,0,4,4,4,4,4,4,16.666666,1,0,1,0,1,1,0,1,0,0,1,0,0,1,1,0,,,,,,,,,,,,,,,,,,,,,,,,,,,,,,,,,,,,,,,,,,,
1783161108,1783161108,75,0,4142.820313,4243.461426,4395.769043,4592.820313,4398.205078,4346.410156,4346.025879,4263.205078,4408.333496,4087.307617,4866.794922,4802.179688,4474.487305,4560,0,1,32,,,,0,4,0,2,4,4,2,4,0,4,4,4,4,4,4,16.666666,,,,,,,,,,,,,,,,,,,,,,,,,,,,,,,,,,,,,,,,,,,,,,,,,,,,,,,,,,,
1783161108,1783161108,76,0,4152.436035,4242.307617,4385.256348,4601.025879,4397.179688,4349.230957,4353.589844,4259.871582,4419.358887,4090.641113,4862.692383,4794.871582,4476.666504,4577.05127,0,1,32,,,,0,4,0,2,4,4,2,4,0,4,4,4,4,4,4,16.666666,,,,,,,,,,,,,,,,,,,,,,,,,,,,,,,,,,,,,,,,,,,,,,,,,,,,,,,,,,,
1783161108,1783161108,77,0,4168.077148,4241.025879,4377.94873,4611.410156,4406.794922,4349.743652,4353.974121,4252.820313,4429.487305,4101.794922,4863.077148,4788.717773,4482.94873,4597.692383,0,1,32,,,,0,4,0,2,4,4,2,4,0,4,4,4,4,4,4,16.666666,,,,,,,,,,,,,,,,,,,,,,,,,,,,,,,,,,,,,,,,,,,,,,,,,,,,,,,,,,,
1783161108,1783161108,78,0,4181.794922,4241.794922,4381.794922,4617.05127,4417.692383,4350.512695,4351.153809,4252.563965,4432.436035,4116.666504,4866.538574,4787.692383,4487.179688,4605.897461,0,1,32,,,,0,4,0,2,4,4,2,4,0,4,4,4,4,4,4,16.666666,,,,,,,,,,,,,,,,,,,,,,,,,,,,,,,,,,,,,,,,,,,,,,,,,,,,,,,,,,,
1783161108,1783161108,79,0,4186.794922,4245.256348,4395.128418,4613.974121,4419.487305,4352.94873,4349.487305,4262.692383,4426.794922,4127.436035,4869.871582,4790.256348,4483.974121,4595.256348,0,1,32,,,,0,4,0,2,4,4,2,4,0,4,4,4,4,4,4,16.666666,,,,,,,,,,,,,,,,,,,,,,,,,,,,,,,,,,,,,,,,,,,,,,,,,,,,,,,,,,,
1783161108,1783161108,80,0,4182.436035,4249.615234,4408.461426,4603.717773,4408.846191,4356.538574,4350.512695,4276.922852,4415.641113,4128.077148,4870.128418,4790.641113,4471.666504,4574.230957,0,1,32,,,,0,4,0,2,4,4,2,4,0,4,4,4,4,4,4,16.666666,,,,,,,,,,,,,,,,,,,,,,,,,,,,,,,,,,,,,,,,,,,,,,,,10,0,0.384422,-0.548767,-0.521057,-0.528748,0.963985,0.157734,-0.116225,-1.185888,-42.496235,11.163959
1783161108,1783161108,81,0,4174.615234,4252.179688,4411.794922,4592.436035,4391.794922,4359.230957,4352.820313,4286.153809,4404.102539,4119.102539,4866.666504,4785.384766,4454.743652,4558.589844,0,1,32,,,,0,4,0,2,4,4,2,4,0,4,4,4,4,4,4,16.666666,,,,,,,,,,,,,,,,,,,,,,,,,,,,,,,,,,,,,,,,,,,,,,,,,,,,,,,,,,,
1783161108,1783161108,82,0,4170.769043,4251.410156,4403.333496,4586.282227,4378.077148,4360.897461,4355,4286.282227,4397.179688,4107.307617,4863.077148,4777.179688,4441.025879,4559.615234,0,1,32,,,,0,4,0,2,4,4,2,4,0,4,4,4,4,4,4,16.666666,,,,,,,,,,,,,,,,,,,,,,,,,,,,,,,,,,,,,,,,,,,,,,,,,,,,,,,,,,,
1783161108,1783161108,83,0,4175.128418,4248.589844,4390.897461,4587.94873,4374.102539,4362.94873,4357.307617,4281.153809,4398.333496,4102.436035,4864.615234,4772.94873,4437.692383,4576.153809,0,1,32,,,,0,4,0,2,4,4,2,4,0,4,4,4,4,4,4,16.666666,,,,,,,,,,,,,,,,,,,,,,,,,,,,,,,,,,,,,,,,,,,,,,,,,,,,,,,,,,,
1783161108,1783161108,84,0,4186.025879,4246.410156,4384.871582,4595.128418,4379.487305,4366.794922,4360,4278.461426,4407.436035,4109.615234,4872.692383,4777.820313,4445.128418,4596.025879,0,1,32,,,,0,4,0,2,4,4,2,4,0,4,4,4,4,4,4,16.666666,,,,,,,,,,,,,,,,,,,,,,,,,,,,,,,,,,,,,,,,,,,,,,,,,,,,,,,,,,,
1783161108,1783161108,85,0,4198.333496,4246.794922,4391.025879,4602.94873,4388.974121,4371.666504,4361.666504,4282.692383,4419.871582,4126.282227,4881.666504,4790,4456.538574,4605.384766,0,1,32,,,,0,4,0,2,4,4,2,4,0,4,4,4,4,4,4,16.666666,,,,,,,,,,,,,,,,,,,,,,,,,,,,,,,,,,,,,,,,,,,,,,,,,,,,,,,,,,,
1783161108,1783161108,86,0,4207.692383,4249.487305,4405.384766,4608.077148,4397.563965,4374.358887,4360,4292.563965,4428.461426,4143.077148,4883.333496,4802.307617,4463.077148,4599.743652,0,1,32,,,,0,4,0,2,4,4,2,4,0,4,4,4,4,4,4,16.666666,,,,,,,,,,,,,,,,,,,,,,,,,,,,,,,,,,,,,,,,,,,,,,,,,,,,,,,,,,,
1783161108,1783161108,87,0,4212.179688,4252.436035,4418.205078,4609.871582,4403.589844,4372.692383,4354.871582,4302.307617,4426.922852,4150.256348,4873.846191,4807.436035,4459.487305,4586.153809,0,1,32,,,,0,4,0,2,4,4,2,4,0,4,4,4,4,4,4,16.666666,,,,,,,,,,,,,,,,,,,,,,,,,,,,,,,,,,,,,,,,,,,,,,,,,,,,,,,,,,,
1783161108,1783161108,88,0,4212.436035,4253.717773,4421.410156,4610.641113,4407.436035,4368.205078,4349.230957,4306.282227,4415.128418,4143.974121,4856.666504,4802.436035,4447.436035,4575.256348,0,1,32,,,,0,4,0,2,4,4,2,4,0,4,4,4,4,4,4,16.666666,,,,,,,,,,,,,,,,,,,,,,,,,,,,,,,,,,,,,,,,,,,,,,,,11,0,0.376973,-0.553345,-0.513428,-0.536743,0.95373,0.159687,-0.111342,-1.183966,-41.963276,10.680896
1783161108,1783161108,89,0,4210.128418,4252.94873,4414.102539,4611.153809,4409.487305,4365,4347.563965,4303.077148,4398.846191,4127.94873,4839.743652,4789.871582,4432.820313,4572.179688,0,1,32,,,,0,4,0,2,4,4,2,4,0,4,4,4,4,4,4,16.666666,,,,,,,,,,,,,,,,,,,,,,,,,,,,,,,,,,,,,,,,,,,,,,,,,,,,,,,,,,,
1783161108,1783161108,90,0,4207.307617,4251.410156,4403.461426,4609.615234,4408.717773,4367.05127,4352.05127,4297.563965,4385.897461,4110.641113,4828.717773,4776.282227,4420.769043,4573.205078,0,1,32,,,,0,4,0,2,4,4,2,4,0,4,4,4,4,4,4,16.666666,,,,,,,,,,,,,,,,,,,,,,,,,,,,,,,,,,,,,,,,,,,,,,,,,,,,,,,,,,,
1783161108,1783161108,91,0,4206.153809,4250.897461,4398.461426,4603.846191,4404.615234,4375.641113,4361.025879,4297.436035,4381.666504,4099.871582,4823.974121,4768.589844,4412.820313,4571.794922,0,1,32,,,,0,4,0,2,4,4,2,4,0,4,4,4,4,4,4,16.666666,,,,,,,,,,,,,,,,,,,,,,,,,,,,,,,,,,,,,,,,,,,,,,,,,,,,,,,,,,,
1783161108,1783161108,92,0,4208.461426,4251.922852,4403.333496,4595.256348,4400.128418,4388.077148,4370.512695,4307.563965,4385.384766,4098.333496,4821.666504,4769.615234,4407.820313,4565.769043,0,1,32,,,,0,4,0,2,4,4,2,4,0,4,4,4,4,4,4,16.666666,,,,,,,,,,,,,,,,,,,,,,,,,,,,,,,,,,,,,,,,,,,,,,,,,,,,,,,,,,,
1783161108,1783161108,93,0,4214.487305,4253.589844,4413.589844,4589.615234,4400.769043,4399.871582,4376.410156,4324.487305,4392.179688,4103.589844,4819.102539,4776.282227,4404.358887,4559.358887,0,1,32,,,,0,4,0,2,4,4,2,4,0,4,4,4,4,4,4,16.666666,,,,,,,,,,,,,,,,,,,,,,,,,,,,,,,,,,,,,,,,,,,,,,,,,,,,,,,,,,,
1783161108,1783161108,94,0,4222.94873,4253.461426,4418.974121,4592.436035,4410.512695,4405.897461,4377.05127,4336.922852,4397.179688,4110,4816.538574,4781.538574,4402.307617,4557.563965,0,1,32,,,,0,4,0,2,4,4,2,4,0,4,4,4,4,4,4,16.666666,,,,,,,,,,,,,,,,,,,,,,,,,,,,,,,,,,,,,,,,,,,,,,,,,,,,,,,,,,,
1783161108,1783161108,95,0,4232.692383,4250.128418,4412.179688,4605,4427.692383,4403.974121,4374.102539,4335.384766,4399.358887,4113.205078,4816.922852,4780.256348,4402.692383,4561.922852,0,1,32,,,,0,4,0,2,4,4,2,4,0,4,4,4,4,4,4,16.666666,,,,,,,,,,,,,,,,,,,,,,,,,,,,,,,,,,,,,,,,,,,,,,,,,,,,,,,,,,,
1783161108,1783161108,96,0,4243.461426,4245.128418,4395.769043,4621.666504,4444.871582,4395.769043,4371.282227,4321.410156,4400.897461,4112.05127,4822.820313,4774.615234,4406.922852,4569.743652,0,1,32,,,,0,4,0,2,4,4,2,4,0,4,4,4,4,4,4,16.666666,,,,,,,,,,,,,,,,,,,,,,,,,,,,,,,,,,,,,,,,,,,,,,,,12,0,0.369879,-0.557922,-0.505737,-0.544189,0.934684,0.139177,-0.112807,-1.298903,-41.466949,10.14614
1783161108,1783161108,97,0,4255.128418,4241.538574,4380.256348,4634.615234,4454.230957,4386.538574,4372.692383,4308.077148,4403.205078,4107.94873,4833.205078,4770.769043,4414.230957,4576.794922,0,1,32,,,,0,4,0,2,4,4,2,4,0,4,4,4,4,4,4,16.666666,,,,,,,,,,,,,,,,,,,,,,,,,,,,,,,,,,,,,,,,,,,,,,,,,,,,,,,,,,,
1783161108,1783161108,98,0,4266.025879,4242.307617,4376.282227,4638.205078,4453.333496,4382.563965,4379.358887,4308.077148,4404.743652,4102.436035,4841.922852,4772.820313,4419.871582,4579.743652,0,1,32,,,,0,4,0,2,4,4,2,4,0,4,4,4,4,4,4,16.666666,,,,,,,,,,,,,,,,,,,,,,,,,,,,,,,,,,,,,,,,,,,,,,,,,,,,,,,,,,,
1783161108,1783161109,99,0,4272.563965,4246.538574,4384.743652,4633.205078,4446.794922,4386.153809,4388.717773,4322.820313,4403.589844,4096.410156,4841.922852,4779.102539,4417.820313,4576.922852,0,1,32,,,,0,4,0,2,4,4,2,4,0,4,4,4,4,4,4,16.666666,,,,,,,,,,,,,,,,,,,,,,,,,,,,,,,,,,,,,,,,,,,,,,,,,,,,,,,,,,,
1783161108,1783161109,100,0,4273.077148,4251.410156,4396.538574,4625.256348,4443.589844,4394.230957,4395.512695,4341.025879,4400.512695,4091.538574,4831.794922,4783.717773,4405.769043,4570.512695,0,1,32,,,,0,4,0,2,4,4,2,4,0,4,4,4,4,4,4,16.666666,,,,,,,,,,,,,,,,,,,,,,,,,,,,,,,,,,,,,,,,,,,,,,,,,,,,,,,,,,,
1783161108,1783161109,101,0,4270.384766,4253.461426,4400.641113,4621.922852,4449.743652,4400.769043,4397.05127,4348.333496,4400,4091.153809,4819.358887,4782.94873,4390,4566.794922,0,1,32,,,,0,4,0,2,4,4,2,4,0,4,4,4,4,4,4,16.666666,,,,,,,,,,,,,,,,,,,,,,,,,,,,,,,,,,,,,,,,,,,,,,,,,,,,,,,,,,,
1783161108,1783161109,102,0,4271.025879,4251.922852,4393.589844,4627.05127,4464.102539,4402.179688,4394.487305,4339.487305,4405.769043,4099.871582,4817.436035,4778.974121,4383.077148,4571.922852,0,1,32,,,,0,4,0,2,4,4,2,4,0,4,4,4,4,4,4,16.666666,,,,,,,,,,,,,,,,,,,,,,,,,,,,,,,,,,,,,,,,,,,,,,,,,,,,,,,,,,,
1783161108,1783161109,103,0,4279.871582,4248.589844,4382.436035,4637.820313,4478.974121,4399.358887,4392.820313,4321.794922,4416.922852,4118.846191,4833.077148,4777.05127,4393.846191,4587.307617,0,1,32,,,,0,4,0,2,4,4,2,4,0,4,4,4,4,4,4,16.666666,,,,,,,,,,,,,,,,,,,,,,,,,,,,,,,,,,,,,,,,,,,,,,,,,,,,,,,,,,,
1783161108,1783161109,104,0,4296.538574,4246.666504,4377.94873,4646.922852,4485.641113,4396.282227,4395.897461,4309.230957,4427.179688,4142.307617,4859.358887,4780.641113,4420,4607.563965,0,1,32,,,,0,4,0,2,4,4,2,4,0,4,4,4,4,4,4,16.666666,,,,,,,,,,,,,,,,,,,,,,,,,,,,,,,,,,,,,,,,,,,,,,,,13,0,0.358843,-0.564514,-0.495056,-0.554504,0.922476,0.158222,-0.101575,-1.285679,-40.786922,9.681526
1783161108,1783161109,105,0,4313.717773,4247.436035,4384.743652,4646.794922,4480.384766,4396.153809,4403.205078,4310.897461,4429.743652,4158.717773,4878.717773,4787.436035,4448.333496,4624.102539,0,1,32,,,,0,4,0,2,4,4,2,4,0,4,4,4,4,4,4,16.666666,,,,,,,,,,,,,,,,,,,,,,,,,,,,,,,,,,,,,,,,,,,,,,,,,,,,,,,,,,,
1783161108,1783161109,106,0,4321.922852,4250.384766,4397.307617,4635.769043,4466.538574,4399.102539,4409.871582,4323.717773,4422.692383,4158.589844,4875.897461,4791.794922,4463.589844,4630.897461,0,1,32,,,,0,4,0,2,4,4,2,4,0,4,4,4,4,4,4,16.666666,,,,,,,,,,,,,,,,,,,,,,,,,,,,,,,,,,,,,,,,,,,,,,,,,,,,,,,,,,,
1783161108,1783161109,107,0,4317.05127,4253.205078,4405.128418,4619.358887,4450.897461,4402.307617,4411.282227,4335.897461,4411.025879,4142.820313,4850.384766,4789.615234,4459.743652,4628.333496,0,1,32,,,,0,4,0,2,4,4,2,4,0,4,4,4,4,4,4,16.666666,,,,,,,,,,,,,,,,,,,,,,,,,,,,,,,,,,,,,,,,,,,,,,,,,,,,,,,,,,,
1783161108,1783161109,108,0,4302.94873,4253.717773,4401.538574,4606.410156,4440.512695,4403.333496,4406.282227,4335.897461,4402.563965,4122.820313,4817.94873,4782.563965,4443.717773,4622.179688,0,1,32,,,,0,4,0,2,4,4,2,4,0,4,4,4,4,4,4,16.666666,,,,,,,,,,,,,,,,,,,,,,,,,,,,,,,,,,,,,,,,,,,,,,,,,,,,,,,,,,,
1783161108,1783161109,109,0,4288.846191,4251.666504,4389.230957,4602.94873,4437.436035,4401.794922,4398.205078,4322.307617,4402.563965,4113.846191,4799.871582,4776.410156,4430,4619.230957,0,1,32,,,,0,4,0,2,4,4,2,4,0,4,4,4,4,4,4,16.666666,,,,,,,,,,,,,,,,,,,,,,,,,,,,,,,,,,,,,,,,,,,,,,,,,,,,,,,,,,,
1783161108,1783161109,110,0,4282.692383,4248.589844,4377.563965,4608.333496,4439.871582,4399.358887,4391.922852,4303.717773,4410.512695,4123.846191,4808.205078,4776.922852,4431.794922,4623.717773,0,1,32,,,,0,4,0,2,4,4,2,4,0,4,4,4,4,4,4,16.666666,,,,,,,,,,,,,,,,,,,,,,,,,,,,,,,,,,,,,,,,,,,,,,,,,,,,,,,,,,,
1783161108,1783161109,111,0,4286.153809,4246.666504,4374.871582,4617.307617,4444.230957,4398.717773,4391.025879,4292.692383,4421.025879,4149.358887,4838.205078,4786.538574,4452.179688,4635.897461,0,1,32,,,,0,4,0,2,4,4,2,4,0,4,4,4,4,4,4,16.666666,,,,,,,,,,,,,,,,,,,,,,,,,,,,,,,,,,,,,,,,,,,,,,,,,,,,,,,,,,,
1783161108,1783161109,112,0,4294.487305,4247.05127,4383.205078,4624.487305,4449.102539,4400.384766,4395.128418,4295.897461,4427.820313,4177.820313,4871.025879,4802.436035,4482.563965,4652.94873,0,1,32,,,,0,4,0,2,4,4,2,4,0,4,4,4,4,4,4,16.666666,,,,,,,,,,,,,,,,,,,,,,,,,,,,,,,,,,,,,,,,,,,,,,,,14,0,0.351793,-0.568726,-0.488586,-0.560425,0.972287,0.141131,-0.094738,-1.257111,-40.108231,9.13004
1783161108,1783161109,113,0,4301.922852,4249.487305,4396.666504,4627.820313,4455.256348,4402.94873,4401.025879,4308.974121,4427.436035,4197.179688,4886.538574,4818.974121,4508.461426,4670.897461,0,1,32,,,,0,4,0,2,4,4,2,4,0,4,4,4,4,4,4,16.666666,,,,,,,,,,,,,,,,,,,,,,,,,,,,,,,,,,,,,,,,,,,,,,,,,,,,,,,,,,,
1783161108,1783161109,114,0,4305.512695,4251.538574,4404.743652,4628.205078,4462.179688,4403.077148,4404.487305,4320,4420.769043,4202.94873,4878.077148,4829.358887,4519.358887,4687.436035,0,1,32,,,,0,4,0,2,4,4,2,4,0,4,4,4,4,4,4,16.666666,,,,,,,,,,,,,,,,,,,,,,,,,,,,,,,,,,,,,,,,,,,,,,,,,,,,,,,,,,,
1783161108,1783161109,115,0,4306.794922,4251.025879,4399.102539,4626.538574,4467.563965,4398.846191,4403.589844,4317.692383,4412.692383,4200,4855.769043,4829.871582,4516.025879,4701.153809,0,1,32,,,,0,4,0,2,4,4,2,4,0,4,4,4,4,4,4,16.666666,,,,,,,,,,,,,,,,,,,,,,,,,,,,,,,,,,,,,,,,,,,,,,,,,,,,,,,,,,,
1783161108,1783161109,116,0,4307.563965,4248.077148,4380.769043,4622.820313,4468.205078,4391.153809,4399.230957,4301.282227,4408.974121,4196.922852,4837.692383,4822.307617,4508.205078,4711.153809,0,1,32,,,,0,4,0,2,4,4,2,4,0,4,4,4,4,4,4,16.666666,,,,,,,,,,,,,,,,,,,,,,,,,,,,,,,,,,,,,,,,,,,,,,,,,,,,,,,,,,,
1783161108,1783161109,117,0,4308.077148,4245,4360,4616.538574,4464.230957,4384.743652,4394.358887,4281.282227,4413.846191,4198.974121,4836.410156,4813.077148,4506.282227,4715,0,1,32,,,,0,4,0,2,4,4,2,4,0,4,4,4,4,4,4,16.666666,,,,,,,,,,,,,,,,,,,,,,,,,,,,,,,,,,,,,,,,,,,,,,,,,,,,,,,,,,,
1783161108,1783161109,118,0,4307.94873,4244.230957,4349.871582,4608.717773,4459.871582,4383.717773,4390.769043,4271.538574,4426.025879,4205.769043,4851.410156,4810.256348,4514.871582,4711.922852,0,1,32,,,,0,4,0,2,4,4,2,4,0,4,4,4,4,4,4,16.666666,,,,,,,,,,,,,,,,,,,,,,,,,,,,,,,,,,,,,,,,,,,,,,,,,,,,,,,,,,,
1783161108,1783161109,119,0,4308.461426,4245.769043,4356.025879,4602.179688,4459.871582,4388.846191,4388.589844,4277.179688,4440.384766,4213.974121,4872.820313,4817.820313,4532.05127,4705,0,1,32,,,,0,4,0,2,4,4,2,4,0,4,4,4,4,4,4,16.666666,,,,,,,,,,,,,,,,,,,,,,,,,,,,,,,,,,,,,,,,,,,,,,,,,,,,,,,,,,,
1783161108,1783161109,120,0,4312.820313,4247.692383,4371.922852,4600.128418,4463.717773,4396.153809,4386.410156,4290,4449.871582,4220.769043,4889.743652,4832.179688,4551.538574,4701.666504,0,1,32,,,,0,4,0,2,4,4,2,4,0,4,4,4,4,4,4,16.666666,,,,,,,,,,,,,,,,,,,,,,,,,,,,,,,,,,,,,,,,,,,,,,,,15,0,0.344735,-0.573364,-0.482605,-0.565247,0.961543,0.158222,-0.102063,-1.3314,-39.564072,8.65037
1783161108,1783161109,121,0,4322.94873,4247.94873,4385.128418,4603.077148,4463.846191,4400.769043,4384.871582,4296.153809,4451.282227,4225,4896.922852,4845.256348,4567.05127,4708.077148,0,1,32,,,,0,4,0,2,4,4,2,4,0,4,4,4,4,4,4,16.666666,,,,,,,,,,,,,,,,,,,,,,,,,,,,,,,,,,,,,,,,,,,,,,,,,,,,,,,,,,,
1783161108,1783161109,122,0,4336.538574,4246.666504,4387.307617,4608.846191,4449.230957,4400.256348,4385.512695,4288.846191,4446.025879,4226.538574,4896.410156,4850.512695,4574.871582,4724.743652,0,1,32,,,,0,4,0,2,4,4,2,4,0,4,4,4,4,4,4,16.666666,,,,,,,,,,,,,,,,,,,,,,,,,,,,,,,,,,,,,,,,,,,,,,,,,,,,,,,,,,,
1783161108,1783161109,123,0,4348.077148,4245.641113,4380.512695,4613.589844,4414.615234,4396.922852,4389.230957,4273.846191,4439.615234,4224.615234,4894.615234,4848.589844,4575.769043,4745.256348,0,1,32,,,,0,4,0,2,4,4,2,4,0,4,4,4,4,4,4,16.666666,,,,,,,,,,,,,,,,,,,,,,,,,,,,,,,,,,,,,,,,,,,,,,,,,,,,,,,,,,,
1783161108,1783161109,124,0,4352.820313,4246.282227,4372.692383,4614.871582,4366.410156,4394.615234,4394.230957,4264.487305,4436.794922,4220,4895.641113,4845.384766,4573.846191,4760.897461,0,1,32,,,,0,4,0,2,4,4,2,4,0,4,4,4,4,4,4,16.666666,,,,,,,,,,,,,,,,,,,,,,,,,,,,,,,,,,,,,,,,,,,,,,,,,,,,,,,,,,,
1783161108,1783161109,125,0,4350.897461,4248.461426,4370.256348,4613.205078,4320.641113,4395.641113,4397.05127,4268.333496,4437.820313,4215.641113,4898.205078,4846.153809,4574.358887,4766.153809,0,1,32,,,,0,4,0,2,4,4,2,4,0,4,4,4,4,4,4,16.666666,,,,,,,,,,,,,,,,,,,,,,,,,,,,,,,,,,,,,,,,,,,,,,,,,,,,,,,,,,,
1783161108,1783161109,126,0,4346.410156,4250.512695,4372.820313,4611.282227,4293.846191,4398.589844,4396.025879,4280.897461,4439.615234,4215.128418,4897.05127,4851.410156,4579.871582,4761.794922,0,1,32,,,,0,4,0,2,4,4,2,4,0,4,4,4,4,4,4,16.666666,,,,,,,,,,,,,,,,,,,,,,,,,,,,,,,,,,,,,,,,,,,,,,,,,,,,,,,,,,,
1783161108,1783161109,127,0,4345.897461,4250.897461,4375.897461,4610.641113,4292.179688,4400.641113,4393.461426,4290.769043,4439.358887,4220.128418,4889.871582,4858.205078,4589.743652,4754.487305,0,1,32,,,,0,4,0,2,4,4,2,4,0,4,4,4,4,4,4,16.666666,,,,,,,,,,,,,,,,,,,,,,,,,,,,,,,,,,,,,,,,,,,,,,,,,,,,,,,,,,,
1783161108,1783161109,128,0,4352.820313,4249.358887,4376.922852,4611.410156,4308.205078,4399.743652,4393.205078,4290.128418,4438.077148,4229.487305,4880.512695,4864.230957,4600.512695,4751.153809,1302,1,32,,,,0,4,0,2,4,4,2,4,0,4,4,4,4,4,4,16.666666,,,,,,,,,,,,,,,,,,,,,,,,,,,,,,,,,,,,,,,,,,,,,,,,16,0,0.333681,-0.581055,-0.474792,-0.570618,0.955683,0.139665,-0.106947,-1.181593,-38.924332,8.118666
1783161108,1783161109,129,0,4365.384766,4247.94873,4377.692383,4611.410156,4325.512695,4396.922852,4397.179688,4281.282227,4439.743652,4239.102539,4876.922852,4869.102539,4607.820313,4754.358887,2416,1,32,,,,0,4,0,2,4,4,2,4,0,4,4,4,4,4,4,16.666666,,,,,,,,,,,,,,,,,,,,,,,,,,,,,,,,,,,,,,,,,,,,,,,,,,,,,,,,,,,
1783161108,1783161109,130,0,4377.820313,4248.333496,4381.794922,4608.974121,4329.487305,4394.743652,4402.820313,4273.461426,4446.282227,4244.743652,4882.94873,4872.692383,4608.333496,4760.128418,2573,1,32,,,,0,4,0,2,4,4,2,4,0,4,4,4,4,4,4,16.666666,,,,,,,,,,,,,,,,,,,,,,,,,,,,,,,,,,,,,,,,,,,,,,,,,,,,,,,,,,,
1783161108,1783161109,131,0,4384.487305,4251.282227,4389.230957,4604.358887,4316.666504,4395.641113,4405.384766,4274.230957,4454.743652,4243.461426,4892.94873,4873.589844,4600.897461,4760.641113,0,1,32,,,,0,4,0,2,4,4,2,4,0,4,4,4,4,4,4,16.666666,,,,,,,,,,,,,,,,,,,,,,,,,,,,,,,,,,,,,,,,,,,,,,,,,,,,,,,,,,,
1783161108,1783161109,132,0,4382.820313,4255.897461,4395.384766,4598.589844,4294.230957,4399.487305,4402.94873,4283.077148,4459.871582,4235.769043,4895,4868.846191,4587.820313,4750.897461,2556,1,32,,,,0,4,0,2,4,4,2,4,0,4,4,4,4,4,4,16.666666,,,,,,,,,,,,,,,,,,,,,,,,,,,,,,,,,,,,,,,,,,,,,,,,,,,,,,,,,,,
1783161108,1783161109,133,0,4374.615234,4259.743652,4394.358887,4592.94873,4274.102539,4403.717773,4398.077148,4293.461426,4458.717773,4225,4881.794922,4857.179688,4574.358887,4732.307617,916,1,32,,,,0,4,0,2,4,4,2,4,0,4,4,4,4,4,4,16.666666,,,,,,,,,,,,,,,,,,,,,,,,,,,,,,,,,,,,,,,,,,,,,,,,,,,,,,,,,,,
1783161108,1783161109,134,0,4365.384766,4260.641113,4383.717773,4589.102539,4264.615234,4405.256348,4396.282227,4297.436035,4453.461426,4216.666504,4859.358887,4841.153809,4566.922852,4713.589844,1783,1,32,,,,0,4,0,2,4,4,2,4,0,4,4,4,4,4,4,16.666666,,,,,,,,,,,,,,,,,,,,,,,,,,,,,,,,,,,,,,,,,,,,,,,,,,,,,,,,,,,
1783161108,1783161109,135,0,4361.794922,4258.333496,4367.692383,4589.230957,4267.692383,4402.179688,4400.769043,4290.897461,4449.230957,4216.153809,4842.94873,4827.179688,4569.871582,4704.358887,0,1,32,,,,0,4,0,2,4,4,2,4,0,4,4,4,4,4,4,16.666666,,,,,,,,,,,,,,,,,,,,,,,,,,,,,,,,,,,,,,,,,,,,,,,,,,,,,,,,,,,
1783161108,1783161109,136,0,4368.717773,4254.230957,4354.871582,4593.974121,4278.461426,4396.666504,4408.846191,4276.410156,4451.025879,4224.487305,4842.94873,4820.512695,4580.897461,4707.307617,2378,1,32,,,,0,4,0,2,4,4,2,4,0,4,4,4,4,4,4,16.666666,,,,,,,,,,,,,,,,,,,,,,,,,,,,,,,,,,,,,,,,,,,,,,,,17,0,0.326116,-0.58667,-0.470032,-0.573181,0.948846,0.138689,-0.121109,-1.013434,-38.315231,7.473466
1783161108,1783161109,137,0,4384.871582,4251.794922,4352.820313,4600.128418,4287.307617,4393.077148,4415.128418,4262.692383,4459.358887,4237.563965,4854.743652,4821.538574,4592.307617,4715,2513,1,32,,,,0,4,0,2,4,4,2,4,0,4,4,4,4,4,4,16.666666,,,,,,,,,,,,,,,,,,,,,,,,,,,,,,,,,,,,,,,,,,,,,,,,,,,,,,,,,,,
1783161108,1783161109,138,0,4402.692383,4252.820313,4363.205078,4601.922852,4284.102539,4395.256348,4415.384766,4259.615234,4470,4248.974121,4864.871582,4825.897461,4597.307617,4714.871582,2563,1,32,,,,0,4,0,2,4,4,2,4,0,4,4,4,4,4,4,16.666666,,,,,,,,,,,,,,,,,,,,,,,,,,,,,,,,,,,,,,,,,,,,,,,,,,,,,,,,,,,
1783161108,1783161109,139,0,4413.974121,4256.538574,4379.615234,4597.307617,4265.128418,4401.153809,4410.384766,4270.256348,4476.922852,4255,4864.615234,4827.94873,4596.025879,4700,2603,1,32,,,,0,4,0,2,4,4,2,4,0,4,4,4,4,4,4,16.666666,,,,,,,,,,,,,,,,,,,,,,,,,,,,,,,,,,,,,,,,,,,,,,,,,,,,,,,,,,,
1783161108,1783161109,140,0,4416.282227,4260.384766,4392.05127,4591.538574,4237.05127,4404.487305,4403.461426,4287.05127,4476.025879,4255.897461,4856.794922,4824.487305,4593.333496,4675.256348,2626,1,32,,,,0,4,0,2,4,4,2,4,0,4,4,4,4,4,4,16.666666,,,,,,,,,,,,,,,,,,,,,,,,,,,,,,,,,,,,,,,,,,,,,,,,,,,,,,,,,,,
1783161108,1783161109,141,0,4414.615234,4261.666504,4393.974121,4593.077148,4212.820313,4399.743652,4398.333496,4297.94873,4467.94873,4253.717773,4851.025879,4816.153809,4593.461426,4653.077148,2304,1,32,,,,0,4,0,2,4,4,2,4,0,4,4,4,4,4,4,16.666666,,,,,,,,,,,,,,,,,,,,,,,,,,,,,,,,,,,,,,,,,,,,,,,,,,,,,,,,,,,
1783161108,1783161109,142,0,4417.05127,4260.256348,4387.94873,4605.641113,4201.922852,4387.94873,4396.538574,4296.282227,4457.05127,4249.487305,4852.307617,4806.410156,4594.871582,4643.077148,2563,1,32,,,,0,4,0,2,4,4,2,4,0,4,4,4,4,4,4,16.666666,,,,,,,,,,,,,,,,,,,,,,,,,,,,,,,,,,,,,,,,,,,,,,,,,,,,,,,,,,,
1783161108,1783161109,143,0,4426.922852,4258.589844,4382.05127,4622.179688,4201.153809,4376.538574,4397.436035,4287.436035,4448.846191,4243.205078,4855.256348,4799.102539,4592.436035,4643.077148,2603,1,32,,,,0,4,0,2,4,4,2,4,0,4,4,4,4,4,4,16.666666,,,,,,,,,,,,,,,,,,,,,,,,,,,,,,,,,,,,,,,,,,,,,,,,,,,,,,,,,,,
1783161108,1783161109,144,0,4439.615234,4259.358887,4382.820313,4628.846191,4197.820313,4373.461426,4399.743652,4283.846191,4446.922852,4235.641113,4849.615234,4795.512695,4582.179688,4640.897461,2626,1,32,,,,0,4,0,2,4,4,2,4,0,4,4,4,4,4,4,16.666666,,,,,,,,,,,,,,,,,,,,,,,,,,,,,,,,,,,,,,,,,,,,,,,,18,0,0.314763,-0.595276,-0.463928,-0.575623,0.975705,0.149432,-0.12648,-0.945424,-37.467041,6.926119
1783161108,1783161109,145,0,4446.922852,4263.461426,4388.974121,4617.179688,4180.769043,4380.897461,4402.692383,4293.717773,4451.410156,4228.717773,4830.641113,4793.974121,4566.410156,4625.384766,2304,1,32,,,,0,4,0,2,4,4,2,4,0,4,4,4,4,4,4,16.666666,,,,,,,,,,,,,,,,,,,,,,,,,,,,,,,,,,,,,,,,,,,,,,,,,,,,,,,,,,,
1783161108,1783161109,146,0,4444.743652,4268.974121,4394.230957,4592.05127,4151.538574,4393.461426,4406.538574,4313.077148,4458.974121,4224.871582,4806.025879,4791.538574,4552.307617,4597.05127,2563,1,32,,,,0,4,0,2,4,4,2,4,0,4,4,4,4,4,4,16.666666,,,,,,,,,,,,,,,,,,,,,,,,,,,,,,,,,,,,,,,,,,,,,,,,,,,,,,,,,,,
1783161108,1783161109,147,0,4435.769043,4272.692383,4393.333496,4568.846191,4122.692383,4403.205078,4411.794922,4329.615234,4465.641113,4225.641113,4790.128418,4786.282227,4546.794922,4567.563965,2603,1,32,,,,0,4,0,2,4,4,2,4,0,4,4,4,4,4,4,16.666666,,,,,,,,,,,,,,,,,,,,,,,,,,,,,,,,,,,,,,,,,,,,,,,,,,,,,,,,,,,
1783161108,1783161109,148,0,4427.436035,4273.077148,4387.05127,4561.410156,4107.436035,4405.769043,4417.820313,4333.589844,4468.846191,4231.153809,4793.333496,4778.974121,4551.922852,4550.128418,2626,1,32,,,,0,4,0,2,4,4,2,4,0,4,4,4,4,4,4,16.666666,,,,,,,,,,,,,,,,,,,,,,,,,,,,,,,,,,,,,,,,,,,,,,,,,,,,,,,,,,,
1783161108,1783161109,149,0,4425.641113,4271.410156,4381.794922,4571.538574,4108.461426,4402.563965,4423.974121,4326.538574,4469.102539,4239.871582,4813.461426,4772.820313,4563.846191,4548.974121,2304,1,32,,,,0,4,0,2,4,4,2,4,0,4,4,4,4,4,4,16.666666,,,,,,,,,,,,,,,,,,,,,,,,,,,,,,,,,,,,,,,,,,,,,,,,,,,,,,,,,,,
1783161108,1783161109,150,0,4430.256348,4270.256348,4383.589844,4588.717773,4116.794922,4399.230957,4429.871582,4319.615234,4468.589844,4248.205078,4838.205078,4772.307617,4576.025879,4557.179688,2563,1,32,,,,0,4,0,2,4,4,2,4,0,4,4,4,4,4,4,16.666666,,,,,,,,,,,,,,,,,,,,,,,,,,,,,,,,,,,,,,,,,,,,,,,,,,,,,,,,,,,
1783161108,1783161109,151,0,4436.794922,4270.641113,4392.563965,4598.846191,4121.025879,4400,4436.153809,4323.333496,4470.384766,4253.077148,4853.461426,4779.743652,4583.077148,4563.205078,2603,1,32,,,,0,4,0,2,4,4,2,4,0,4,4,4,4,4,4,16.666666,,,,,,,,,,,,,,,,,,,,,,,,,,,,,,,,,,,,,,,,,,,,,,,,,,,,,,,,,,,
1783161108,1783161109,152,0,4440.897461,4271.922852,4402.436035,4596.153809,4115.256348,4405,4441.794922,4338.205078,4476.025879,4253.717773,4852.94873,4792.94873,4583.717773,4558.974121,2626,1,32,,,,0,4,0,2,4,4,2,4,0,4,4,4,4,4,4,16.666666,,,,,,,,,,,,,,,,,,,,,,,,,,,,,,,,,,,,,,,,,,,,,,,,19,0,0.30735,-0.60144,-0.460022,-0.576355,0.959101,0.154316,-0.146502,-0.884215,-36.853672,6.300174
1783161108,1783161109,153,0,4441.538574,4272.307617,4406.282227,4586.410156,4102.179688,4411.025879,4444.743652,4355,4483.333496,4252.179688,4840.384766,4805.384766,4580.256348,4545.641113,2304,1,32,,,,0,4,0,2,4,4,2,4,0,4,4,4,4,4,4,16.666666,,,,,,,,,,,,,,,,,,,,,,,,,,,,,,,,,,,,,,,,,,,,,,,,,,,,,,,,,,,
1783161108,1783161109,154,0,4441.922852,4271.410156,4401.538574,4580,4088.205078,4414.487305,4443.974121,4362.307617,4488.205078,4250.512695,4825.384766,4808.717773,4576.025879,4530.641113,2563,1,32,,,,0,4,0,2,4,4,2,4,0,4,4,4,4,4,4,16.666666,,,,,,,,,,,,,,,,,,,,,,,,,,,,,,,,,,,,,,,,,,,,,,,,,,,,,,,,,,,
1783161108,1783161109,155,0,4445.256348,4270,4391.922852,4582.692383,4077.820557,4413.589844,4440.897461,4356.153809,4487.563965,4249.358887,4815,4798.846191,4573.461426,4521.025879,2603,1,32,,,,0,4,0,2,4,4,2,4,0,4,4,4,4,4,4,16.666666,,,,,,,,,,,,,,,,,,,,,,,,,,,,,,,,,,,,,,,,,,,,,,,,,,,,,,,,,,,
1783161108,1783161109,156,0,4451.025879,4269.102539,4383.846191,4591.153809,4071.538574,4408.974121,4438.846191,4343.333496,4482.179688,4246.922852,4809.358887,4779.615234,4572.436035,4517.307617,2626,1,32,,,,0,4,0,2,4,4,2,4,0,4,4,4,4,4,4,16.666666,,,,,,,,,,,,,,,,,,,,,,,,,,,,,,,,,,,,,,,,,,,,,,,,,,,,,,,,,,,
1783161108,1783161109,157,0,4455.384766,4269.487305,4382.307617,4597.307617,4066.923096,4403.461426,4440.128418,4335.641113,4476.025879,4242.94873,4804.358887,4762.05127,4573.333496,4515.128418,2304,1,32,,,,0,4,0,2,4,4,2,4,0,4,4,4,4,4,4,16.666666,,,,,,,,,,,,,,,,,,,,,,,,,,,,,,,,,,,,,,,,,,,,,,,,,,,,,,,,,,,
1783161108,1783161109,158,0,4454.358887,4271.025879,4387.94873,4597.05127,4062.179443,4399.102539,4444.102539,4340.641113,4473.077148,4239.871582,4797.436035,4756.410156,4576.410156,4509.615234,2563,1,32,,,,0,4,0,2,4,4,2,4,0,4,4,4,4,4,4,16.666666,,,,,,,,,,,,,,,,,,,,,,,,,,,,,,,,,,,,,,,,,,,,,,,,,,,,,,,,,,,
1783161108,1783161109,159,0,4448.589844,4273.589844,4396.794922,4592.05127,4057.564209,4397.563965,4447.179688,4355.256348,4474.230957,4241.153809,4789.487305,4764.487305,4579.871582,4498.846191,2603,1,32,,,,0,4,0,2,4,4,2,4,0,4,4,4,4,4,4,16.666666,,,,,,,,,,,,,,,,,,,,,,,,,,,,,,,,,,,,,,,,,,,,,,,,,,,,,,,,,,,
1783161108,1783161109,160,0,4442.563965,4276.410156,4402.692383,4588.077148,4053.589844,4399.102539,4445.897461,4368.333496,4477.692383,4247.05127,4782.05127,4777.307617,4579.230957,4484.102539,2626,1,32,,,,0,4,0,2,4,4,2,4,0,4,4,4,4,4,4,16.666666,,,,,,,,,,,,,,,,,,,,,,,,,,,,,,,,,,,,,,,,,,,,,,,,20,0,0.299597,-0.607483,-0.456726,-0.576721,0.860945,0.149432,-0.146014,-0.629127,-36.218304,5.870157
1783161108,1783161109,161,0,4441.666504,4278.077148,4401.282227,4588.333496,4049.358887,4403.205078,4440.641113,4369.487305,4480.128418,4254.358887,4776.025879,4782.692383,4571.153809,4468.717773,2304,1,32,,,,0,4,0,2,4,4,2,4,0,4,4,4,4,4,4,16.666666,,,,,,,,,,,,,,,,,,,,,,,,,,,,,,,,,,,,,,,,,,,,,,,,,,,,,,,,,,,
1783161108,1783161109,162,0,4447.05127,4277.94873,4393.333496,4591.538574,4041.923096,4409.102539,4435.769043,4358.205078,4479.358887,4258.717773,4772.436035,4776.025879,4558.333496,4457.692383,2563,1,32,,,,0,4,0,2,4,4,2,4,0,4,4,4,4,4,4,16.666666,,,,,,,,,,,,,,,,,,,,,,,,,,,,,,,,,,,,,,,,,,,,,,,,,,,,,,,,,,,
1783161108,1783161109,163,0,4455,4276.538574,4385.769043,4593.333496,4029.230713,4415.256348,4437.436035,4344.487305,4476.153809,4257.692383,4772.692383,4763.846191,4548.333496,4456.282227,2603,1,32,,,,0,4,0,2,4,4,2,4,0,4,4,4,4,4,4,16.666666,,,,,,,,,,,,,,,,,,,,,,,,,,,,,,,,,,,,,,,,,,,,,,,,,,,,,,,,,,,
1783161108,1783161109,164,0,4460.256348,4275.769043,4385.641113,4590.512695,4013.205078,4420.128418,4448.205078,4340.641113,4473.205078,4251.922852,4778.974121,4757.436035,4546.922852,4465,2626,1,32,,,,0,4,0,2,4,4,2,4,0,4,4,4,4,4,4,16.666666,,,,,,,,,,,,,,,,,,,,,,,,,,,,,,,,,,,,,,,,,,,,,,,,,,,,,,,,,,,
1783161108,1783161109,165,0,4460,4276.794922,4394.743652,4583.846191,3999.615479,4422.692383,4463.333496,4350.641113,4472.563965,4244.358887,4789.358887,4762.692383,4553.461426,4477.820313,2304,1,32,,,,0,4,0,2,4,4,2,4,0,4,4,4,4,4,4,16.666666,,,,,,,,,,,,,,,,,,,,,,,,,,,,,,,,,,,,,,,,,,,,,,,,,,,,,,,,,,,
1783161108,1783161109,166,0,4456.794922,4279.102539,4407.307617,4576.922852,3993.076904,4422.05127,4473.333496,4367.307617,4473.589844,4239.358887,4797.436035,4775.384766,4562.05127,4486.410156,2563,1,32,,,,0,4,0,2,4,4,2,4,0,4,4,4,4,4,4,16.666666,,,,,,,,,,,,,,,,,,,,,,,,,,,,,,,,,,,,,,,,,,,,,,,,,,,,,,,,,,,
1783161108,1783161109,167,0,4455.769043,4281.025879,4414.615234,4572.05127,3992.820557,4418.717773,4472.05127,4379.230957,4474.230957,4239.487305,4795.384766,4786.410156,4566.922852,4486.025879,2603,1,32,,,,0,4,0,2,4,4,2,4,0,4,4,4,4,4,4,16.666666,,,,,,,,,,,,,,,,,,,,,,,,,,,,,,,,,,,,,,,,,,,,,,,,,,,,,,,,,,,
1783161108,1783161109,168,0,4460.769043,4281.410156,4412.436035,4569.358887,3992.692383,4415.128418,4462.563965,4380.384766,4473.077148,4243.846191,4781.538574,4788.974121,4565.512695,4478.205078,2626,1,32,,,,0,4,0,2,4,4,2,4,0,4,4,4,4,4,4,16.666666,,,,,,,,,,,,,,,,,,,,,,,,,,,,,,,,,,,,,,,,,,,,,,,,21,0,0.287007,-0.615051,-0.453125,-0.577942,0.823343,0.189965,-0.156757,-0.566214,-35.529808,5.399807
1783161108,1783161109,169,0,4471.410156,4280.769043,4403.974121,4567.94873,3987.179443,4414.871582,4455.128418,4374.230957,4470.512695,4248.077148,4762.179688,4784.230957,4559.743652,4468.974121,2304,1,32,,,,0,4,0,2,4,4,2,4,0,4,4,4,4,4,4,16.666666,,,,,,,,,,,,,,,,,,,,,,,,,,,,,,,,,,,,,,,,,,,,,,,,,,,,,,,,,,,
