title:Session_032_04Jul2026,start timestamp:1783160656.503604,stop timestamp:1783160717.941653,headset type:EPOCX,headset serial:E7020186,headset firmware:740,channels:98,sampling rate:eeg_256;pm_0.1;mot_32,samples:15738,version:2.2,,,,,,,,,,,,,,,,,,,,,,,,,,,,,,,,,,,,,,,,,,,,,,,,,,,,,,,,,,,,,,,,,,,,,,,,,,,,,,,,,,,,,,,,,
Timestamp,OriginalTimestamp,EEG.Counter,EEG.Interpolated,EEG.AF3,EEG.F7,EEG.F3,EEG.FC5,EEG.T7,EEG.P7,EEG.O1,EEG.O2,EEG.P8,EEG.T8,EEG.FC6,EEG.F4,EEG.F8,EEG.AF4,EEG.RawCq,EEG.Battery,EEG.BatteryPercent,MarkerIndex,MarkerType,MarkerValueInt,EEG.MarkerHardware,CQ.AF3,CQ.F7,CQ.F3,CQ.FC5,CQ.T7,CQ.P7,CQ.O1,CQ.O2,CQ.P8,CQ.T8,CQ.FC6,CQ.F4,CQ.F8,CQ.AF4,CQ.Overall,EQ.SampleRateQuality,EQ.OVERALL,EQ.AF3,EQ.F7,EQ.F3,EQ.FC5,EQ.T7,EQ.P7,EQ.O1,EQ.O2,EQ.P8,EQ.T8,EQ.FC6,EQ.F4,EQ.F8,EQ.AF4,PM.Attention.IsActive,PM.Attention.Scaled,PM.Attention.Raw,PM.Attention.Min,PM.Attention.Max,PM.Engagement.IsActive,PM.Engagement.Scaled,PM.Engagement.Raw,PM.Engagement.Min,PM.Engagement.Max,PM.Excitement.IsActive,PM.Excitement.Scaled,PM.Excitement.Raw,PM.Excitement.Min,PM.Excitement.Max,PM.LongTermExcitement,PM.Stress.IsActive,PM.Stress.Scaled,PM.Stress.Raw,PM.Stress.Min,PM.Stress.Max,PM.Relaxation.IsActive,PM.Relaxation.Scaled,PM.Relaxation.Raw,PM.Relaxation.Min,PM.Relaxation.Max,PM.Interest.IsActive,PM.Interest.Scaled,PM.Interest.Raw,PM.Interest.Min,PM.Interest.Max,MOT.CounterMems,MOT.InterpolatedMems,MOT.Q0,MOT.Q1,MOT.Q2,MOT.Q3,MOT.AccX,MOT.AccY,MOT.AccZ,MOT.MagX,MOT.MagY,MOT.MagZ
1783160657,1783160657,152,0,4420.512695,4316.025879,4257.692383,4280.897461,4413.846191,4274.615234,4154.743652,4292.692383,4738.589844,5123.589844,4420.384766,4612.820313,4535.256348,5171.922852,930,1,34,,,,0,4,0,4,4,4,1,0,0,4,4,2,4,4,4,0,,,,,,,,,,,,,,,,,,,,,,,,,,,,,,,,,,,,,,,,,,,,,,,,19,0,0.64587,0.29718,-0.588196,0.385437,1.043096,-0.159199,0.122085,-10.342409,26.605738,21.312639
1783160657,1783160657,153,0,4411.282227,4315.256348,4239.102539,4279.743652,4401.666504,4269.743652,4145.384766,4290.512695,4737.563965,5129.743652,4414.871582,4603.974121,4530.128418,5161.794922,2428,1,34,,,,0,4,0,4,4,4,1,0,0,4,4,2,4,4,4,0,,,,,,,,,,,,,,,,,,,,,,,,,,,,,,,,,,,,,,,,,,,,,,,,,,,,,,,,,,,
1783160657,1783160657,154,0,4416.538574,4315,4239.487305,4286.025879,4402.692383,4270,4147.436035,4289.743652,4742.692383,5149.230957,4418.846191,4611.794922,4536.025879,5166.410156,2550,1,34,,,,0,4,0,4,4,4,1,0,0,4,4,2,4,4,4,0,,,,,,,,,,,,,,,,,,,,,,,,,,,,,,,,,,,,,,,,,,,,,,,,,,,,,,,,,,,
1783160657,1783160657,155,0,4428.333496,4315.128418,4248.461426,4294.487305,4404.615234,4275.128418,4157.563965,4291.153809,4752.692383,5171.794922,4427.436035,4627.94873,4545.512695,5178.846191,2601,1,34,,,,0,4,0,4,4,4,1,0,0,4,4,2,4,4,4,0,,,,,,,,,,,,,,,,,,,,,,,,,,,,,,,,,,,,,,,,,,,,,,,,,,,,,,,,,,,
1783160657,1783160657,156,0,4434.230957,4315.256348,4253.717773,4299.871582,4397.307617,4281.025879,4167.307617,4293.717773,4763.589844,5187.179688,4432.94873,4638.077148,4548.846191,5187.05127,930,1,34,,,,0,4,0,4,4,4,1,0,0,4,4,2,4,4,4,0,,,,,,,,,,,,,,,,,,,,,,,,,,,,,,,,,,,,,,,,,,,,,,,,,,,,,,,,,,,
1783160657,1783160657,157,0,4428.589844,4315,4251.282227,4301.410156,4381.282227,4284.102539,4169.615234,4295,4771.538574,5193.846191,4431.538574,4634.615234,4541.153809,5184.230957,2428,1,34,,,,0,4,0,4,4,4,1,0,0,4,4,2,4,4,4,0,,,,,,,,,,,,,,,,,,,,,,,,,,,,,,,,,,,,,,,,,,,,,,,,,,,,,,,,,,,
1783160657,1783160657,158,0,4416.794922,4314.102539,4245.769043,4302.94873,4365.769043,4283.333496,4163.589844,4293.461426,4775,5200.256348,4425.641113,4622.307617,4527.563965,5173.717773,2550,1,34,,,,0,4,0,4,4,4,1,0,0,4,4,2,4,4,4,0,,,,,,,,,,,,,,,,,,,,,,,,,,,,,,,,,,,,,,,,,,,,,,,,,,,,,,,,,,,
1783160657,1783160657,159,0,4409.230957,4313.333496,4245,4309.102539,4360.384766,4280.897461,4155.384766,4290.384766,4775.897461,5216.153809,4422.05127,4613.077148,4517.436035,5166.282227,2601,1,34,,,,0,4,0,4,4,4,1,0,0,4,4,2,4,4,4,0,,,,,,,,,,,,,,,,,,,,,,,,,,,,,,,,,,,,,,,,,,,,,,,,,,,,,,,,,,,
1783160657,1783160657,160,0,4410.769043,4313.589844,4251.153809,4318.717773,4365.641113,4280,4152.05127,4289.358887,4778.333496,5245.128418,4425.384766,4614.615234,4516.538574,5169.358887,930,1,34,,,,0,4,0,4,4,4,1,0,0,4,4,2,4,4,4,0,,,,,,,,,,,,,,,,,,,,,,,,,,,,,,,,,,,,,,,,,,,,,,,,20,0,0.644148,0.291199,-0.593689,0.38446,1.028934,-0.162129,0.125992,-10.341501,26.745163,21.414709
1783160657,1783160657,161,0,4416.922852,4315.384766,4259.615234,4325.897461,4372.692383,4281.538574,4155.256348,4292.563965,4785.256348,5281.282227,4433.461426,4625.128418,4522.692383,5180.384766,2428,1,34,,,,0,4,0,4,4,4,1,0,0,4,4,2,4,4,4,0,,,,,,,,,,,,,,,,,,,,,,,,,,,,,,,,,,,,,,,,,,,,,,,,,,,,,,,,,,,
1783160657,1783160657,162,0,4419.230957,4317.692383,4263.333496,4325.128418,4369.615234,4283.717773,4159.615234,4298.461426,4796.666504,5315.128418,4438.974121,4635.256348,4528.717773,5190.897461,2550,1,34,,,,0,4,0,4,4,4,1,0,0,4,4,2,4,4,4,0,,,,,,,,,,,,,,,,,,,,,,,,,,,,,,,,,,,,,,,,,,,,,,,,,,,,,,,,,,,
1783160657,1783160657,163,0,4413.461426,4318.717773,4259.230957,4316.922852,4350.769043,4283.974121,4157.307617,4302.94873,4810.512695,5340.897461,4436.282227,4636.794922,4527.94873,5193.205078,2601,1,34,,,,0,4,0,4,4,4,1,0,0,4,4,2,4,4,4,0,,,,,,,,,,,,,,,,,,,,,,,,,,,,,,,,,,,,,,,,,,,,,,,,,,,,,,,,,,,
1783160657,1783160657,164,0,4402.307617,4317.692383,4248.461426,4307.05127,4320.769043,4281.282227,4143.846191,4303.077148,4824.102539,5360.384766,4426.153809,4628.589844,4519.102539,5186.282227,930,1,34,,,,0,4,0,4,4,4,1,0,0,4,4,2,4,4,4,0,,,,,,,,,,,,,,,,,,,,,,,,,,,,,,,,,,,,,,,,,,,,,,,,,,,,,,,,,,,
1783160657,1783160657,165,0,4391.922852,4315,4235.128418,4300.128418,4290.641113,4276.153809,4121.666504,4299.487305,4835.769043,5380.128418,4415,4615.897461,4506.538574,5173.333496,2428,1,34,,,,0,4,0,4,4,4,1,0,0,4,4,2,4,4,4,0,,,,,,,,,,,,,,,,,,,,,,,,,,,,,,,,,,,,,,,,,,,,,,,,,,,,,,,,,,,
1783160657,1783160657,166,0,4386.282227,4312.307617,4223.333496,4295.897461,4270.512695,4269.487305,4097.820313,4294.615234,4846.025879,5404.615234,4407.94873,4605.897461,4496.282227,5159.487305,2550,1,34,,,,0,4,0,4,4,4,1,0,0,4,4,2,4,4,4,0,,,,,,,,,,,,,,,,,,,,,,,,,,,,,,,,,,,,,,,,,,,,,,,,,,,,,,,,,,,
1783160657,1783160657,167,0,4385.384766,4310.897461,4216.538574,4291.025879,4263.974121,4262.05127,4079.102539,4289.871582,4855.512695,5433.077148,4405.256348,4602.179688,4492.307617,5149.871582,2601,1,34,,,,0,4,0,4,4,4,1,0,0,4,4,2,4,4,4,0,,,,,,,,,,,,,,,,,,,,,,,,,,,,,,,,,,,,,,,,,,,,,,,,,,,,,,,,,,,
1783160657,1783160657,168,0,4385.897461,4310.641113,4215.641113,4284.230957,4266.794922,4255.256348,4067.179443,4285,4863.974121,5460.897461,4403.205078,4603.974121,4493.077148,5146.922852,930,1,34,,,,0,4,0,4,4,4,1,0,0,4,4,2,4,4,4,0,,,,,,,,,,,,,,,,,,,,,,,,,,,,,,,,,,,,,,,,,,,,,,,,21,0,0.641425,0.284729,-0.600525,0.38324,0.989379,-0.210963,0.111342,-10.507351,26.870647,21.223238
1783160657,1783160657,169,0,4385.641113,4310.384766,4218.205078,4278.333496,4270,4251.666504,4060,4279.358887,4870.897461,5484.102539,4399.615234,4607.05127,4494.102539,5149.487305,2428,1,34,,,,0,4,0,4,4,4,1,0,0,4,4,2,4,4,4,0,,,,,,,,,,,,,,,,,,,,,,,,,,,,,,,,,,,,,,,,,,,,,,,,,,,,,,,,,,,
1783160657,1783160657,170,0,4384.743652,4309.230957,4219.743652,4277.94873,4265.641113,4253.333496,4054.358887,4273.717773,4876.025879,5502.436035,4396.794922,4607.563965,4491.666504,5152.94873,2550,1,34,,,,0,4,0,4,4,4,1,0,0,4,4,2,4,4,4,0,,,,,,,,,,,,,,,,,,,,,,,,,,,,,,,,,,,,,,,,,,,,,,,,,,,,,,,,,,,
1783160657,1783160657,171,0,4385,4307.307617,4217.307617,4285.769043,4252.05127,4260,4047.820557,4269.871582,4880.769043,5517.94873,4398.974121,4605.128418,4485.769043,5153.205078,2601,1,34,,,,0,4,0,4,4,4,1,0,0,4,4,2,4,4,4,0,,,,,,,,,,,,,,,,,,,,,,,,,,,,,,,,,,,,,,,,,,,,,,,,,,,,,,,,,,,
1783160657,1783160657,172,0,4386.282227,4305.641113,4212.563965,4300.384766,4234.615234,4267.94873,4038.718018,4268.846191,4886.282227,5532.307617,4407.179688,4601.922852,4479.743652,5148.205078,930,1,34,,,,0,4,0,4,4,4,1,0,0,4,4,2,4,4,4,0,,,,,,,,,,,,,,,,,,,,,,,,,,,,,,,,,,,,,,,,,,,,,,,,,,,,,,,,,,,
1783160657,1783160657,173,0,4386.794922,4305,4209.358887,4316.538574,4221.538574,4272.820313,4027.05127,4268.846191,4891.922852,5544.871582,4416.794922,4600.128418,4477.563965,5138.333496,2428,1,34,,,,0,4,0,4,4,4,1,0,0,4,4,2,4,4,4,0,,,,,,,,,,,,,,,,,,,,,,,,,,,,,,,,,,,,,,,,,,,,,,,,,,,,,,,,,,,
1783160657,1783160657,174,0,4384.102539,4305.769043,4211.410156,4328.205078,4217.563965,4272.307617,4015.384521,4268.205078,4894.871582,5553.846191,4421.282227,4600.128418,4480,5125.384766,2550,1,34,,,,0,4,0,4,4,4,1,0,0,4,4,2,4,4,4,0,,,,,,,,,,,,,,,,,,,,,,,,,,,,,,,,,,,,,,,,,,,,,,,,,,,,,,,,,,,
1783160657,1783160657,175,0,4377.692383,4306.922852,4219.358887,4331.922852,4220.769043,4268.589844,4008.589844,4266.794922,4893.461426,5559.615234,4418.205078,4599.743652,4484.487305,5112.563965,2601,1,34,,,,0,4,0,4,4,4,1,0,0,4,4,2,4,4,4,0,,,,,,,,,,,,,,,,,,,,,,,,,,,,,,,,,,,,,,,,,,,,,,,,,,,,,,,,,,,
1783160657,1783160657,176,0,4370.512695,4308.205078,4231.794922,4328.846191,4225.641113,4266.153809,4010.641113,4267.179688,4889.615234,5566.025879,4412.179688,4597.94873,4488.205078,5103.461426,930,1,34,,,,0,4,0,4,4,4,1,0,0,4,4,2,4,4,4,0,,,,,,,,,,,,,,,,,,,,,,,,,,,,,,,,,,,,,,,,,,,,,,,,22,0,0.640294,0.282227,-0.60376,0.381897,0.964962,-0.20901,0.089855,-10.473283,26.916916,21.150915
1783160657,1783160657,177,0,4366.538574,4309.615234,4246.666504,4324.871582,4228.974121,4268.333496,4020.641113,4271.282227,4888.461426,5577.436035,4411.282227,4596.794922,4490.512695,5100.641113,2428,1,34,,,,0,4,0,4,4,4,1,0,0,4,4,2,4,4,4,0,,,,,,,,,,,,,,,,,,,,,,,,,,,,,,,,,,,,,,,,,,,,,,,,,,,,,,,,,,,
1783160657,1783160657,178,0,4367.94873,4311.282227,4261.410156,4326.794922,4230.641113,4274.102539,4032.435791,4278.333496,4893.333496,5594.102539,4420,4600.256348,4493.205078,5104.102539,2550,1,34,,,,0,4,0,4,4,4,1,0,0,4,4,2,4,4,4,0,,,,,,,,,,,,,,,,,,,,,,,,,,,,,,,,,,,,,,,,,,,,,,,,,,,,,,,,,,,
1783160657,1783160657,179,0,4372.94873,4313.077148,4273.077148,4336.410156,4232.179688,4279.871582,4040.128174,4285.769043,4902.94873,5611.538574,4435.384766,4610.128418,4498.077148,5110.641113,2601,1,34,,,,0,4,0,4,4,4,1,0,0,4,4,2,4,4,4,0,,,,,,,,,,,,,,,,,,,,,,,,,,,,,,,,,,,,,,,,,,,,,,,,,,,,,,,,,,,
1783160657,1783160657,180,0,4377.94873,4315,4280.128418,4349.615234,4234.615234,4282.436035,4042.94873,4291.282227,4912.307617,5623.461426,4450.384766,4624.615234,4505.512695,5116.794922,930,1,34,,,,0,4,0,4,4,4,1,0,0,4,4,2,4,4,4,0,,,,,,,,,,,,,,,,,,,,,,,,,,,,,,,,,,,,,,,,,,,,,,,,,,,,,,,,,,,
1783160657,1783160657,181,0,4381.153809,4316.538574,4283.717773,4359.871582,4237.94873,4282.179688,4045.384521,4294.230957,4916.410156,5625.512695,4458.077148,4638.077148,4513.717773,5119.615234,2428,1,34,,,,0,4,0,4,4,4,1,0,0,4,4,2,4,4,4,0,,,,,,,,,,,,,,,,,,,,,,,,,,,,,,,,,,,,,,,,,,,,,,,,,,,,,,,,,,,
1783160657,1783160657,182,0,4382.05127,4316.922852,4285.897461,4361.922852,4240.256348,4281.410156,4050.384521,4295.128418,4912.563965,5616.794922,4455.897461,4643.846191,4518.589844,5116.025879,2550,1,34,,,,0,4,0,4,4,4,1,0,0,4,4,2,4,4,4,0,,,,,,,,,,,,,,,,,,,,,,,,,,,,,,,,,,,,,,,,,,,,,,,,,,,,,,,,,,,
1783160657,1783160657,183,0,4380.256348,4316.025879,4288.077148,4354.743652,4239.743652,4282.179688,4056.410156,4295.256348,4901.666504,5599.487305,4446.538574,4638.589844,4515.641113,5104.487305,2601,1,34,,,,0,4,0,4,4,4,1,0,0,4,4,2,4,4,4,0,,,,,,,,,,,,,,,,,,,,,,,,,,,,,,,,,,,,,,,,,,,,,,,,,,,,,,,,,,,
1783160657,1783160657,184,0,4374.615234,4314.487305,4290.128418,4342.307617,4235.384766,4284.743652,4059.487061,4296.025879,4888.974121,5578.974121,4436.410156,4625.128418,4503.974121,5087.820313,930,1,34,,,,0,4,0,4,4,4,1,0,0,4,4,2,4,4,4,0,,,,,,,,,,,,,,,,,,,,,,,,,,,,,,,,,,,,,,,,,,,,,,,,23,0,0.640348,0.280884,-0.606323,0.378723,0.96545,-0.164571,0.082041,-10.459288,26.975224,21.152491
1783160657,1783160657,185,0,4364.487305,4314.102539,4291.922852,4330.512695,4227.692383,4288.077148,4057.820557,4298.846191,4881.538574,5562.820313,4432.179688,4611.922852,4487.94873,5074.102539,2428,1,34,,,,0,4,0,4,4,4,1,0,0,4,4,2,4,4,4,0,,,,,,,,,,,,,,,,,,,,,,,,,,,,,,,,,,,,,,,,,,,,,,,,,,,,,,,,,,,
1783160657,1783160657,186,0,4350.897461,4316.153809,4293.205078,4324.230957,4216.922852,4290.512695,4054.487061,4304.230957,4883.461426,5556.922852,4436.922852,4606.282227,4474.615234,5072.563965,2550,1,34,,,,0,4,0,4,4,4,1,0,0,4,4,2,4,4,4,0,,,,,,,,,,,,,,,,,,,,,,,,,,,,,,,,,,,,,,,,,,,,,,,,,,,,,,,,,,,
1783160657,1783160657,187,0,4335.641113,4319.743652,4291.922852,4323.974121,4202.94873,4291.538574,4053.718018,4310.128418,4891.025879,5559.615234,4447.563965,4607.820313,4467.94873,5085.512695,2601,1,34,,,,0,4,0,4,4,4,1,0,0,4,4,2,4,4,4,0,,,,,,,,,,,,,,,,,,,,,,,,,,,,,,,,,,,,,,,,,,,,,,,,,,,,,,,,,,,
1783160657,1783160657,188,0,4320.897461,4322.563965,4285.897461,4326.410156,4187.05127,4290.897461,4057.179443,4314.102539,4894.871582,5562.05127,4456.922852,4609.358887,4465.897461,5105.512695,930,1,34,,,,0,4,0,4,4,4,1,0,0,4,4,2,4,4,4,0,,,,,,,,,,,,,,,,,,,,,,,,,,,,,,,,,,,,,,,,,,,,,,,,,,,,,,,,,,,
1783160657,1783160657,189,0,4310.512695,4322.692383,4276.153809,4327.436035,4173.077148,4290,4063.718018,4314.871582,4887.820313,5555.256348,4459.487305,4605.512695,4465,5120.769043,2428,1,34,,,,0,4,0,4,4,4,1,0,0,4,4,2,4,4,4,0,,,,,,,,,,,,,,,,,,,,,,,,,,,,,,,,,,,,,,,,,,,,,,,,,,,,,,,,,,,
1783160657,1783160657,190,0,4307.820313,4321.025879,4268.461426,4326.410156,4164.871582,4290.641113,4071.794922,4315,4872.692383,5538.461426,4456.538574,4599.102539,4465,5124.615234,2550,1,34,,,,0,4,0,4,4,4,1,0,0,4,4,2,4,4,4,0,,,,,,,,,,,,,,,,,,,,,,,,,,,,,,,,,,,,,,,,,,,,,,,,,,,,,,,,,,,
1783160657,1783160657,191,0,4313.461426,4319.871582,4269.358887,4327.179688,4162.820313,4293.846191,4080,4317.820313,4860.384766,5520,4454.358887,4598.846191,4468.974121,5119.871582,2601,1,34,,,,0,4,0,4,4,4,1,0,0,4,4,2,4,4,4,0,,,,,,,,,,,,,,,,,,,,,,,,,,,,,,,,,,,,,,,,,,,,,,,,,,,,,,,,,,,
1783160657,1783160657,192,0,4324.743652,4320.641113,4281.025879,4334.230957,4164.102539,4299.230957,4087.307617,4324.743652,4860.128418,5510.128418,4458.717773,4609.871582,4479.230957,5114.615234,930,1,34,,,,0,4,0,4,4,4,1,0,0,4,4,2,4,4,4,0,,,,,,,,,,,,,,,,,,,,,,,,,,,,,,,,,,,,,,,,,,,,,,,,24,0,0.641179,0.280762,-0.607361,0.375732,0.946405,-0.164571,0.101087,-10.513359,27.094368,21.120575
1783160657,1783160657,193,0,4336.282227,4322.94873,4299.102539,4347.307617,4163.846191,4303.589844,4091.923096,4333.077148,4872.179688,5513.205078,4469.102539,4628.589844,4494.615234,5115.256348,2428,1,34,,,,0,4,0,4,4,4,1,0,0,4,4,2,4,4,4,0,,,,,,,,,,,,,,,,,,,,,,,,,,,,,,,,,,,,,,,,,,,,,,,,,,,,,,,,,,,
1783160657,1783160657,194,0,4343.717773,4324.615234,4315.128418,4360.897461,4159.487305,4303.846191,4092.564209,4338.205078,4888.333496,5524.230957,4478.974121,4645.512695,4510,5121.282227,2550,1,34,,,,0,4,0,4,4,4,1,0,0,4,4,2,4,4,4,0,,,,,,,,,,,,,,,,,,,,,,,,,,,,,,,,,,,,,,,,,,,,,,,,,,,,,,,,,,,
1783160657,1783160657,195,0,4344.487305,4324.743652,4323.205078,4367.563965,4151.153809,4298.717773,4090.384521,4338.846191,4898.461426,5533.461426,4481.666504,4652.563965,4519.615234,5126.538574,2601,1,34,,,,0,4,0,4,4,4,1,0,0,4,4,2,4,4,4,0,,,,,,,,,,,,,,,,,,,,,,,,,,,,,,,,,,,,,,,,,,,,,,,,,,,,,,,,,,,
1783160657,1783160657,196,0,4339.358887,4323.589844,4323.077148,4364.358887,4141.025879,4290.897461,4087.94873,4336.922852,4897.436035,5532.436035,4476.282227,4648.717773,4520.384766,5123.461426,930,1,34,,,,0,4,0,4,4,4,1,0,0,4,4,2,4,4,4,0,,,,,,,,,,,,,,,,,,,,,,,,,,,,,,,,,,,,,,,,,,,,,,,,,,,,,,,,,,,
1783160657,1783160657,197,0,4331.922852,4322.692383,4319.358887,4354.871582,4130.897461,4284.358887,4087.94873,4336.282227,4887.563965,5518.717773,4467.563965,4639.487305,4513.333496,5110.256348,2428,1,34,,,,0,4,0,4,4,4,1,0,0,4,4,2,4,4,4,0,,,,,,,,,,,,,,,,,,,,,,,,,,,,,,,,,,,,,,,,,,,,,,,,,,,,,,,,,,,
1783160657,1783160657,198,0,4327.307617,4322.563965,4317.820313,4347.436035,4122.820313,4282.307617,4090.769287,4338.461426,4875.769043,5497.307617,4461.794922,4633.077148,4503.717773,5093.077148,2550,1,34,,,,0,4,0,4,4,4,1,0,0,4,4,2,4,4,4,0,,,,,,,,,,,,,,,,,,,,,,,,,,,,,,,,,,,,,,,,,,,,,,,,,,,,,,,,,,,
1783160657,1783160657,199,0,4329.743652,4323.205078,4322.307617,4348.333496,4118.333496,4285.384766,4095.256348,4342.179688,4868.205078,5477.05127,4461.410156,4634.871582,4498.333496,5081.666504,2601,1,34,,,,0,4,0,4,4,4,1,0,0,4,4,2,4,4,4,0,,,,,,,,,,,,,,,,,,,,,,,,,,,,,,,,,,,,,,,,,,,,,,,,,,,,,,,,,,,
1783160657,1783160657,200,0,4339.102539,4323.589844,4333.717773,4357.307617,4118.846191,4291.666504,4100.512695,4345.512695,4866.922852,5464.487305,4464.102539,4645,4501.410156,5081.666504,930,1,34,,,,0,4,0,4,4,4,1,0,0,4,4,2,4,4,4,0,,,,,,,,,,,,,,,,,,,,,,,,,,,,,,,,,,,,,,,,,,,,,,,,25,0,0.642421,0.280762,-0.607666,0.373108,0.932731,-0.148944,0.104505,-10.445356,27.334932,20.958517
1783160657,1783160657,201,0,4350.897461,4323.589844,4349.487305,4368.333496,4124.230957,4298.205078,4106.025879,4347.820313,4869.871582,5460.512695,4465.641113,4659.487305,4512.05127,5090.769043,2428,1,34,,,,0,4,0,4,4,4,1,0,0,4,4,2,4,4,4,0,,,,,,,,,,,,,,,,,,,,,,,,,,,,,,,,,,,,,,,,,,,,,,,,,,,,,,,,,,,
1783160657,1783160657,202,0,4359.487305,4322.94873,4365,4375.769043,4131.794922,4303.077148,4111.025879,4349.487305,4873.461426,5460.641113,4463.205078,4672.179688,4525.128418,5101.538574,2550,1,34,,,,0,4,0,4,4,4,1,0,0,4,4,2,4,4,4,0,1,0,1,0,1,1,0,1,0,0,1,0,2,1,1,0,,,,,,,,,,,,,,,,,,,,,,,,,,,,,,,,,,,,,,,,,,,
1783160657,1783160657,203,0,4363.205078,4321.794922,4376.282227,4379.230957,4138.205078,4305.384766,4114.230957,4351.410156,4875.256348,5459.743652,4458.077148,4679.743652,4535.384766,5108.461426,2601,1,34,,,,0,4,0,4,4,4,1,0,0,4,4,2,4,4,4,0,,,,,,,,,,,,,,,,,,,,,,,,,,,,,,,,,,,,,,,,,,,,,,,,,,,,,,,,,,,
1783160657,1783160657,204,0,4364.487305,4321.025879,4382.179688,4382.563965,4141.794922,4305,4115,4354.230957,4875.769043,5455.897461,4454.230957,4682.692383,4541.538574,5112.05127,930,1,34,,,,0,4,0,4,4,4,1,0,0,4,4,2,4,4,4,0,,,,,,,,,,,,,,,,,,,,,,,,,,,,,,,,,,,,,,,,,,,,,,,,,,,,,,,,,,,
1783160657,1783160657,205,0,4366.794922,4320.641113,4384.871582,4388.589844,4142.563965,4303.077148,4114.615234,4357.563965,4875.128418,5448.717773,4453.846191,4683.846191,4544.743652,5113.974121,2428,1,34,,,,0,4,0,4,4,4,1,0,0,4,4,2,4,4,4,0,,,,,,,,,,,,,,,,,,,,,,,,,,,,,,,,,,,,,,,,,,,,,,,,,,,,,,,,,,,
1783160657,1783160657,206,0,4370.256348,4320.256348,4386.794922,4394.615234,4140.384766,4301.410156,4115.641113,4360.512695,4871.410156,5435.897461,4454.743652,4684.871582,4544.743652,5112.179688,2550,1,34,,,,0,4,0,4,4,4,1,0,0,4,4,2,4,4,4,0,,,,,,,,,,,,,,,,,,,,,,,,,,,,,,,,,,,,,,,,,,,,,,,,,,,,,,,,,,,
1783160657,1783160657,207,0,4371.282227,4319.102539,4387.94873,4394.743652,4134.230957,4301.282227,4119.871582,4361.666504,4862.307617,5415,4453.205078,4684.871582,4539.615234,5101.410156,2601,1,34,,,,0,4,0,4,4,4,1,0,0,4,4,2,4,4,4,0,,,,,,,,,,,,,,,,,,,,,,,,,,,,,,,,,,,,,,,,,,,,,,,,,,,,,,,,,,,
1783160657,1783160657,208,0,4367.820313,4317.94873,4387.820313,4387.05127,4124.487305,4303.333496,4127.436035,4361.282227,4848.717773,5387.563965,4448.846191,4683.461426,4529.230957,5079.743652,930,1,34,,,,0,4,0,4,4,4,1,0,0,4,4,2,4,4,4,0,,,,,,,,,,,,,,,,,,,,,,,,,,,,,,,,,,,,,,,,,,,,,,,,26,0,0.645629,0.281799,-0.606689,0.368347,0.917104,-0.104993,0.124039,-10.467487,27.518105,20.645998
1783160657,1783160657,209,0,4361.922852,4318.461426,4386.282227,4376.025879,4113.717773,4306.282227,4138.589844,4361.410156,4835.769043,5360.769043,4446.025879,4682.307617,4517.179688,5052.820313,2428,1,34,,,,0,4,0,4,4,4,1,0,0,4,4,2,4,4,4,0,,,,,,,,,,,,,,,,,,,,,,,,,,,,,,,,,,,,,,,,,,,,,,,,,,,,,,,,,,,
1783160657,1783160657,210,0,4357.179688,4321.794922,4384.358887,4369.487305,4105.128418,4309.487305,4154.615234,4364.743652,4829.871582,5342.05127,4450.384766,4683.974121,4507.94873,5030,2550,1,34,,,,0,4,0,4,4,4,1,0,0,4,4,2,4,4,4,0,,,,,,,,,,,,,,,,,,,,,,,,,,,,,,,,,,,,,,,,,,,,,,,,,,,,,,,,,,,
1783160657,1783160657,211,0,4355.769043,4327.05127,4382.692383,4371.410156,4100.769043,4312.692383,4177.307617,4373.077148,4831.794922,5331.794922,4463.333496,4687.820313,4503.205078,5016.538574,2601,1,34,,,,0,4,0,4,4,4,1,0,0,4,4,2,4,4,4,0,,,,,,,,,,,,,,,,,,,,,,,,,,,,,,,,,,,,,,,,,,,,,,,,,,,,,,,,,,,
1783160657,1783160657,212,0,4356.282227,4331.410156,4382.05127,4379.871582,4100.256348,4316.666504,4204.230957,4384.743652,4837.563965,5323.589844,4480.769043,4691.025879,4500.897461,5010.769043,930,1,34,,,,0,4,0,4,4,4,1,0,0,4,4,2,4,4,4,0,,,,,,,,,,,,,,,,,,,,,,,,,,,,,,,,,,,,,,,,,,,,,,,,,,,,,,,,,,,
1783160657,1783160657,213,0,4357.307617,4333.077148,4383.717773,4389.358887,4101.922852,4322.05127,4229.102539,4396.153809,4841.410156,5310.897461,4496.282227,4692.179688,4499.358887,5006.922852,2428,1,34,,,,0,4,0,4,4,4,1,0,0,4,4,2,4,4,4,0,,,,,,,,,,,,,,,,,,,,,,,,,,,,,,,,,,,,,,,,,,,,,,,,,,,,,,,,,,,
1783160657,1783160657,214,0,4357.05127,4332.179688,4388.461426,4395.128418,4102.94873,4328.077148,4244.743652,4403.077148,4840.128418,5292.563965,4505.769043,4692.179688,4498.846191,5000.769043,2550,1,34,,,,0,4,0,4,4,4,1,0,0,4,4,2,4,4,4,0,,,,,,,,,,,,,,,,,,,,,,,,,,,,,,,,,,,,,,,,,,,,,,,,,,,,,,,,,,,
1783160657,1783160657,215,0,4353.589844,4330.769043,4393.974121,4394.487305,4100,4333.333496,4249.102539,4404.358887,4833.461426,5270.384766,4508.461426,4691.666504,4498.461426,4990.128418,2601,1,34,,,,0,4,0,4,4,4,1,0,0,4,4,2,4,4,4,0,,,,,,,,,,,,,,,,,,,,,,,,,,,,,,,,,,,,,,,,,,,,,,,,,,,,,,,,,,,
1783160657,1783160657,216,0,4345,4330.256348,4395.641113,4386.410156,4090.512939,4334.487305,4246.282227,4402.05127,4822.820313,5246.153809,4506.538574,4688.589844,4496.282227,4974.487305,930,1,34,,,,0,4,0,4,4,4,1,0,0,4,4,2,4,4,4,0,,,,,,,,,,,,,,,,,,,,,,,,,,,,,,,,,,,,,,,,,,,,,,,,27,0,0.648426,0.282898,-0.605957,0.36377,0.893664,-0.083018,0.116225,-10.387405,27.666294,20.548065
1783160657,1783160657,217,0,4331.666504,4330.897461,4390.512695,4372.436035,4075.641113,4329.487305,4243.461426,4400,4810.897461,5221.025879,4502.692383,4680.897461,4490.512695,4954.615234,2428,1,34,,,,0,4,0,4,4,4,1,0,0,4,4,2,4,4,4,0,,,,,,,,,,,,,,,,,,,,,,,,,,,,,,,,,,,,,,,,,,,,,,,,,,,,,,,,,,,
1783160657,1783160657,218,0,4318.333496,4331.922852,4381.538574,4358.461426,4061.923096,4318.974121,4245.769043,4400.769043,4801.538574,5197.05127,4499.615234,4671.153809,4483.717773,4933.205078,2550,1,34,,,,0,4,0,4,4,4,1,0,0,4,4,2,4,4,4,0,,,,,,,,,,,,,,,,,,,,,,,,,,,,,,,,,,,,,,,,,,,,,,,,,,,,,,,,,,,
1783160657,1783160657,219,0,4311.025879,4332.307617,4375.641113,4351.410156,4057.179443,4307.563965,4253.077148,4404.358887,4797.692383,5178.205078,4500,4665.897461,4481.282227,4914.487305,2601,1,34,,,,0,4,0,4,4,4,1,0,0,4,4,2,4,4,4,0,,,,,,,,,,,,,,,,,,,,,,,,,,,,,,,,,,,,,,,,,,,,,,,,,,,,,,,,,,,
1783160657,1783160657,220,0,4313.846191,4331.410156,4377.94873,4355.769043,4064.358887,4300.769043,4261.538574,4408.717773,4799.615234,5166.410156,4505.384766,4671.666504,4488.846191,4903.589844,930,1,34,,,,0,4,0,4,4,4,1,0,0,4,4,2,4,4,4,0,,,,,,,,,,,,,,,,,,,,,,,,,,,,,,,,,,,,,,,,,,,,,,,,,,,,,,,,,,,
1783160657,1783160657,221,0,4325.897461,4329.487305,4387.94873,4370.256348,4079.743652,4301.025879,4266.666504,4411.538574,4803.974121,5160.256348,4515.641113,4689.230957,4507.563965,4903.461426,2428,1,34,,,,0,4,0,4,4,4,1,0,0,4,4,2,4,4,4,0,,,,,,,,,,,,,,,,,,,,,,,,,,,,,,,,,,,,,,,,,,,,,,,,,,,,,,,,,,,
1783160657,1783160657,222,0,4340.897461,4327.179688,4400,4388.333496,4095.641113,4305.769043,4267.179688,4411.666504,4806.025879,5154.358887,4528.333496,4712.307617,4532.05127,4912.307617,2550,1,34,,,,0,4,0,4,4,4,1,0,0,4,4,2,4,4,4,0,,,,,,,,,,,,,,,,,,,,,,,,,,,,,,,,,,,,,,,,,,,,,,,,,,,,,,,,,,,
1783160657,1783160657,223,0,4350.512695,4325,4407.179688,4401.153809,4106.153809,4309.743652,4265.128418,4409.743652,4801.282227,5142.692383,4538.974121,4730.128418,4552.05127,4921.794922,2601,1,34,,,,0,4,0,4,4,4,1,0,0,4,4,2,4,4,4,0,,,,,,,,,,,,,,,,,,,,,,,,,,,,,,,,,,,,,,,,,,,,,,,,,,,,,,,,,,,
1783160657,1783160657,224,0,4347.692383,4323.846191,4405.256348,4402.563965,4109.871582,4309.230957,4263.846191,4407.179688,4788.205078,5121.666504,4542.563965,4733.461426,4557.563965,4921.410156,930,1,34,,,,0,4,0,4,4,4,1,0,0,4,4,2,4,4,4,0,,,,,,,,,,,,,,,,,,,,,,,,,,,,,,,,,,,,,,,,,,,,,,,,28,0,0.650778,0.284485,-0.605713,0.358704,0.873642,-0.062508,0.11476,-10.398664,27.916332,20.459925
1783160657,1783160657,225,0,4333.205078,4324.102539,4396.025879,4393.589844,4109.487305,4304.358887,4265.256348,4404.743652,4769.871582,5092.94873,4537.436035,4720.641113,4546.538574,4905.512695,2428,1,34,,,,0,4,0,4,4,4,1,0,0,4,4,2,4,4,4,0,,,,,,,,,,,,,,,,,,,,,,,,,,,,,,,,,,,,,,,,,,,,,,,,,,,,,,,,,,,
1783160657,1783160657,226,0,4315.769043,4325.128418,4386.025879,4381.794922,4110.512695,4298.717773,4269.615234,4402.692383,4752.436035,5063.333496,4527.436035,4700.641113,4526.922852,4880,2550,1,34,,,,0,4,0,4,4,4,1,0,0,4,4,2,4,4,4,0,,,,,,,,,,,,,,,,,,,,,,,,,,,,,,,,,,,,,,,,,,,,,,,,,,,,,,,,,,,
1783160657,1783160657,227,0,4306.922852,4325.769043,4383.717773,4376.153809,4117.820313,4295.769043,4275.641113,4401.410156,4742.436035,5041.153809,4520.256348,4687.307617,4513.205078,4860.256348,2601,1,34,,,,0,4,0,4,4,4,1,0,0,4,4,2,4,4,4,0,,,,,,,,,,,,,,,,,,,,,,,,,,,,,,,,,,,,,,,,,,,,,,,,,,,,,,,,,,,
1783160657,1783160657,228,0,4311.794922,4325.897461,4392.563965,4380.641113,4133.077148,4297.05127,4282.563965,4401.410156,4742.05127,5030,4521.538574,4689.615234,4516.282227,4859.487305,930,1,34,,,,0,4,0,4,4,4,1,0,0,4,4,2,4,4,4,0,,,,,,,,,,,,,,,,,,,,,,,,,,,,,,,,,,,,,,,,,,,,,,,,,,,,,,,,,,,
1783160657,1783160657,229,0,4324.871582,4325.769043,4408.717773,4391.666504,4152.05127,4301.025879,4290.512695,4402.94873,4747.563965,5026.153809,4530.512695,4704.743652,4535.769043,4877.307617,2428,1,34,,,,0,4,0,4,4,4,1,0,0,4,4,2,4,4,4,0,,,,,,,,,,,,,,,,,,,,,,,,,,,,,,,,,,,,,,,,,,,,,,,,,,,,,,,,,,,
1783160657,1783160657,230,0,4335.769043,4326.153809,4423.589844,4401.153809,4168.077148,4306.025879,4299.871582,4406.025879,4752.563965,5021.410156,4541.538574,4721.538574,4561.538574,4900.897461,2550,1,34,,,,0,4,0,4,4,4,1,0,0,4,4,2,4,4,4,0,,,,,,,,,,,,,,,,,,,,,,,,,,,,,,,,,,,,,,,,,,,,,,,,,,,,,,,,,,,
1783160657,1783160657,231,0,4338.461426,4327.563965,4431.410156,4404.102539,4176.282227,4311.410156,4310.128418,4409.871582,4752.692383,5010.256348,4548.717773,4730.641113,4581.538574,4915.641113,2601,1,34,,,,0,4,0,4,4,4,1,0,0,4,4,2,4,4,4,0,,,,,,,,,,,,,,,,,,,,,,,,,,,,,,,,,,,,,,,,,,,,,,,,,,,,,,,,,,,
1783160657,1783160657,232,0,4335,4329.230957,4431.410156,4401.538574,4176.282227,4317.179688,4319.487305,4413.333496,4748.077148,4993.205078,4550.128418,4732.05127,4590.512695,4917.692383,930,1,34,,,,0,4,0,4,4,4,1,0,0,4,4,2,4,4,4,0,,,,,,,,,,,,,,,,,,,,,,,,,,,,,,,,,,,,,,,,,,,,,,,,29,0,0.653585,0.286194,-0.606567,0.350708,0.843365,-0.034184,0.131364,-10.475465,28.241365,20.447266
1783160657,1783160657,233,0,4332.436035,4330.641113,4427.05127,4397.179688,4171.153809,4322.563965,4326.282227,4415.769043,4742.563965,4975.897461,4548.333496,4733.974121,4590.897461,4913.974121,2428,1,34,,,,0,4,0,4,4,4,1,0,0,4,4,2,4,4,4,0,,,,,,,,,,,,,,,,,,,,,,,,,,,,,,,,,,,,,,,,,,,,,,,,,,,,,,,,,,,
1783160657,1783160657,234,0,4334.743652,4330.512695,4421.922852,4392.692383,4163.589844,4325.641113,4330.769043,4417.05127,4739.615234,4962.94873,4546.538574,4742.563965,4588.717773,4913.205078,2550,1,34,,,,0,4,0,4,4,4,1,0,0,4,4,2,4,4,4,0,,,,,,,,,,,,,,,,,,,,,,,,,,,,,,,,,,,,,,,,,,,,,,,,,,,,,,,,,,,
1783160657,1783160657,235,0,4339.358887,4328.205078,4417.179688,4386.282227,4153.717773,4325.256348,4334.358887,4417.820313,4739.743652,4955.512695,4547.307617,4756.025879,4588.205078,4917.307617,2601,1,34,,,,0,4,0,4,4,4,1,0,0,4,4,2,4,4,4,0,,,,,,,,,,,,,,,,,,,,,,,,,,,,,,,,,,,,,,,,,,,,,,,,,,,,,,,,,,,
1783160657,1783160657,236,0,4341.153809,4324.487305,4412.820313,4377.563965,4141.922852,4322.05127,4338.717773,4419.743652,4742.179688,4951.666504,4552.05127,4766.538574,4590.769043,4921.794922,930,1,34,,,,0,4,0,4,4,4,1,0,0,4,4,2,4,4,4,0,,,,,,,,,,,,,,,,,,,,,,,,,,,,,,,,,,,,,,,,,,,,,,,,,,,,,,,,,,,
1783160657,1783160657,237,0,4337.94873,4321.538574,4409.871582,4370.384766,4130.641113,4318.717773,4344.358887,4423.077148,4745.384766,4949.743652,4560.897461,4768.589844,4596.794922,4922.179688,2428,1,34,,,,0,4,0,4,4,4,1,0,0,4,4,2,4,4,4,0,,,,,,,,,,,,,,,,,,,,,,,,,,,,,,,,,,,,,,,,,,,,,,,,,,,,,,,,,,,
1783160657,1783160657,238,0,4332.563965,4320.897461,4409.615234,4369.487305,4122.563965,4317.563965,4350.128418,4426.794922,4748.333496,4948.205078,4571.538574,4763.077148,4604.743652,4917.179688,2550,1,34,,,,0,4,0,4,4,4,1,0,0,4,4,2,4,4,4,0,,,,,,,,,,,,,,,,,,,,,,,,,,,,,,,,,,,,,,,,,,,,,,,,,,,,,,,,,,,
1783160657,1783160657,239,0,4328.333496,4322.820313,4411.025879,4374.615234,4117.179688,4318.589844,4354.487305,4428.461426,4748.589844,4943.589844,4579.615234,4754.615234,4610.256348,4907.820313,2601,1,34,,,,0,4,0,4,4,4,1,0,0,4,4,2,4,4,4,0,,,,,,,,,,,,,,,,,,,,,,,,,,,,,,,,,,,,,,,,,,,,,,,,,,,,,,,,,,,
1783160657,1783160657,240,0,4325.641113,4325.512695,4411.410156,4379.358887,4109.615234,4320,4356.794922,4427.436035,4742.820313,4930.512695,4581.025879,4747.307617,4608.077148,4895.641113,930,1,34,,,,0,4,0,4,4,4,1,0,0,4,4,2,4,4,4,0,,,,,,,,,,,,,,,,,,,,,,,,,,,,,,,,,,,,,,,,,,,,,,,,30,0,0.655606,0.285645,-0.607483,0.345764,0.811134,-0.042486,0.137224,-10.561252,28.633896,20.369205
1783160657,1783160657,241,0,4322.563965,4327.179688,4408.461426,4377.307617,4095.256348,4319.743652,4357.94873,4425.384766,4730,4906.282227,4575.769043,4743.333496,4596.794922,4882.563965,2428,1,34,,,,0,4,0,4,4,4,1,0,0,4,4,2,4,4,4,0,,,,,,,,,,,,,,,,,,,,,,,,,,,,,,,,,,,,,,,,,,,,,,,,,,,,,,,,,,,
1783160657,1783160657,242,0,4317.563965,4327.05127,4402.307617,4368.589844,4075.384521,4318.333496,4360.256348,4425.128418,4714.230957,4875,4568.333496,4743.589844,4581.153809,4871.538574,2550,1,34,,,,0,4,0,4,4,4,1,0,0,4,4,2,4,4,4,0,,,,,,,,,,,,,,,,,,,,,,,,,,,,,,,,,,,,,,,,,,,,,,,,,,,,,,,,,,,
1783160657,1783160657,243,0,4311.410156,4326.153809,4395.641113,4359.230957,4056.794922,4318.205078,4365,4427.94873,4702.563965,4846.538574,4564.358887,4747.436035,4569.487305,4864.743652,2601,1,34,,,,0,4,0,4,4,4,1,0,0,4,4,2,4,4,4,0,,,,,,,,,,,,,,,,,,,,,,,,,,,,,,,,,,,,,,,,,,,,,,,,,,,,,,,,,,,
1783160657,1783160657,244,0,4307.179688,4325.384766,4391.794922,4356.538574,4046.410156,4320.897461,4371.538574,4431.922852,4699.615234,4829.102539,4565.897461,4752.179688,4567.307617,4862.563965,930,1,34,,,,0,4,0,4,4,4,1,0,0,4,4,2,4,4,4,0,,,,,,,,,,,,,,,,,,,,,,,,,,,,,,,,,,,,,,,,,,,,,,,,,,,,,,,,,,,
1783160657,1783160657,245,0,4307.05127,4325.384766,4393.846191,4362.820313,4046.410156,4325.769043,4377.563965,4433.846191,4704.230957,4823.846191,4570.641113,4754.102539,4573.974121,4862.563965,2428,1,34,,,,0,4,0,4,4,4,1,0,0,4,4,2,4,4,4,0,,,,,,,,,,,,,,,,,,,,,,,,,,,,,,,,,,,,,,,,,,,,,,,,,,,,,,,,,,,
1783160657,1783160657,246,0,4310.128418,4325.384766,4404.871582,4373.333496,4053.076904,4330.512695,4382.307617,4432.179688,4709.487305,4822.94873,4574.743652,4750.512695,4582.05127,4861.282227,2550,1,34,,,,0,4,0,4,4,4,1,0,0,4,4,2,4,4,4,0,,,,,,,,,,,,,,,,,,,,,,,,,,,,,,,,,,,,,,,,,,,,,,,,,,,,,,,,,,,
1783160657,1783160657,247,0,4312.307617,4325.128418,4424.230957,4379.743652,4059.871826,4333.717773,4387.436035,4429.230957,4709.230957,4816.410156,4575.512695,4741.794922,4583.589844,4856.538574,2601,1,34,,,,0,4,0,4,4,4,1,0,0,4,4,2,4,4,4,0,,,,,,,,,,,,,,,,,,,,,,,,,,,,,,,,,,,,,,,,,,,,,,,,,,,,,,,,,,,
1783160657,1783160657,248,0,4309.615234,4325.256348,4446.538574,4376.794922,4061.923096,4335,4395.256348,4428.717773,4702.05127,4799.102539,4573.205078,4731.153809,4575.256348,4848.717773,930,1,34,,,,0,4,0,4,4,4,1,0,0,4,4,2,4,4,4,0,,,,,,,,,,,,,,,,,,,,,,,,,,,,,,,,,,,,,,,,,,,,,,,,31,0,0.659766,0.28302,-0.609009,0.337219,0.804297,-0.039556,0.143572,-10.571794,29.053839,20.315619
1783160657,1783160657,249,0,4301.410156,4325.897461,4464.871582,4366.282227,4059.487061,4335.384766,4405.897461,4432.179688,4691.794922,4774.358887,4570.128418,4723.717773,4561.282227,4839.871582,2428,1,34,,,,0,4,0,4,4,4,1,0,0,4,4,2,4,4,4,0,,,,,,,,,,,,,,,,,,,,,,,,,,,,,,,,,,,,,,,,,,,,,,,,,,,,,,,,,,,
1783160657,1783160657,250,0,4291.666504,4326.666504,4474.358887,4355.897461,4057.564209,4335.897461,4416.538574,4438.205078,4683.846191,4750.128418,4569.102539,4724.102539,4549.615234,4831.538574,2550,1,34,,,,0,4,0,4,4,4,1,0,0,4,4,2,4,4,4,0,,,,,,,,,,,,,,,,,,,,,,,,,,,,,,,,,,,,,,,,,,,,,,,,,,,,,,,,,,,
1783160657,1783160657,251,0,4284.230957,4327.179688,4475.256348,4351.666504,4060.769287,4337.436035,4424.871582,4443.717773,4680.512695,4732.307617,4571.410156,4732.436035,4545.384766,4823.717773,2601,1,34,,,,0,4,0,4,4,4,1,0,0,4,4,2,4,4,4,0,,,,,,,,,,,,,,,,,,,,,,,,,,,,,,,,,,,,,,,,,,,,,,,,,,,,,,,,,,,
1783160657,1783160657,252,0,4280,4327.436035,4470.769043,4353.205078,4068.333252,4340,4430.897461,4447.05127,4680,4719.871582,4576.153809,4743.333496,4546.282227,4814.615234,930,1,34,,,,0,4,0,4,4,4,1,0,0,4,4,2,4,4,4,0,,,,,,,,,,,,,,,,,,,,,,,,,,,,,,,,,,,,,,,,,,,,,,,,,,,,,,,,,,,
1783160657,1783160657,253,0,4276.025879,4327.94873,4464.487305,4354.102539,4074.871826,4342.692383,4437.179688,4449.358887,4677.692383,4706.538574,4580.256348,4748.077148,4545,4802.436035,2428,1,34,,,,0,4,0,4,4,4,1,0,0,4,4,2,4,4,4,0,,,,,,,,,,,,,,,,,,,,,,,,,,,,,,,,,,,,,,,,,,,,,,,,,,,,,,,,,,,
1783160657,1783160657,254,0,4269.615234,4328.846191,4458.974121,4348.333496,4077.05127,4343.846191,4445.897461,4452.307617,4670.128418,4686.025879,4581.025879,4740.256348,4535.897461,4787.94873,2550,1,34,,,,0,4,0,4,4,4,1,0,0,4,4,2,4,4,4,0,,,,,,,,,,,,,,,,,,,,,,,,,,,,,,,,,,,,,,,,,,,,,,,,,,,,,,,,,,,
1783160657,1783160657,255,0,4260.384766,4329.615234,4455.128418,4335.897461,4076.666748,4343.077148,4457.05127,4456.025879,4657.436035,4657.563965,4577.179688,4721.666504,4519.871582,4773.974121,34,1,34,,,,0,4,0,4,4,4,1,0,0,4,4,2,4,4,4,0,,,,,,,,,,,,,,,,,,,,,,,,,,,,,,,,,,,,,,,,,,,,,,,,,,,,,,,,,,,
1783160657,1783160657,0,0,4251.410156,4330.128418,4452.307617,4322.307617,4078.589844,4341.282227,4468.846191,4459.615234,4643.589844,4626.794922,4570.897461,4701.666504,4504.230957,4763.717773,2160,1,34,,,,0,4,0,4,4,4,1,0,0,4,4,2,4,4,4,0,,,,,,,,,,,,,,,,,,,,,,,,,,,,,,,,,,,,,,,,,,,,,,,,0,0,0.662775,0.280334,-0.610596,0.330627,0.822366,-0.060554,0.154316,-10.48128,29.498455,20.300724
1783160657,1783160657,1,0,4246.410156,4329.871582,4449.615234,4315.128418,4086.025635,4341.025879,4478.333496,4461.538574,4633.333496,4601.666504,4566.666504,4690.769043,4497.179688,4758.077148,2378,1,34,,,,0,4,0,4,4,4,1,0,0,4,4,2,4,4,4,0,,,,,,,,,,,,,,,,,,,,,,,,,,,,,,,,,,,,,,,,,,,,,,,,,,,,,,,,,,,
1783160657,1783160657,2,0,4247.05127,4329.102539,4447.05127,4318.333496,4097.692383,4343.461426,4484.358887,4461.410156,4628.717773,4586.153809,4567.820313,4693.205078,4502.179688,4755.897461,2725,1,34,,,,0,4,0,4,4,4,1,0,0,4,4,2,4,4,4,0,,,,,,,,,,,,,,,,,,,,,,,,,,,,,,,,,,,,,,,,,,,,,,,,,,,,,,,,,,,
1783160657,1783160657,3,0,4251.410156,4327.563965,4445.384766,4329.102539,4110.256348,4347.179688,4486.922852,4459.615234,4626.794922,4576.922852,4573.974121,4704.230957,4515.256348,4754.487305,0,1,34,,,,0,4,0,4,4,4,1,0,0,4,4,2,4,4,4,0,,,,,,,,,,,,,,,,,,,,,,,,,,,,,,,,,,,,,,,,,,,,,,,,,,,,,,,,,,,
1783160657,1783160657,4,0,4254.230957,4325.384766,4445.128418,4340.384766,4121.282227,4349.615234,4487.563965,4456.922852,4621.922852,4564.871582,4580.641113,4715,4528.461426,4751.794922,2530,1,34,,,,0,4,0,4,4,4,1,0,0,4,4,2,4,4,4,0,,,,,,,,,,,,,,,,,,,,,,,,,,,,,,,,,,,,,,,,,,,,,,,,,,,,,,,,,,,
1783160657,1783160657,5,0,4250.897461,4322.94873,4444.615234,4344.358887,4130.769043,4348.974121,4488.077148,4454.102539,4610.769043,4543.589844,4583.589844,4719.230957,4535,4746.922852,308,1,34,,,,0,4,0,4,4,4,1,0,0,4,4,2,4,4,4,0,,,,,,,,,,,,,,,,,,,,,,,,,,,,,,,,,,,,,,,,,,,,,,,,,,,,,,,,,,,
1783160657,1783160657,6,0,4241.153809,4321.538574,4442.05127,4336.410156,4139.743652,4346.153809,4490.256348,4452.179688,4595.256348,4513.589844,4581.794922,4715.641113,4534.230957,4739.487305,0,1,34,,,,0,4,0,4,4,4,1,0,0,4,4,2,4,4,4,0,,,,,,,,,,,,,,,,,,,,,,,,,,,,,,,,,,,,,,,,,,,,,,,,,,,,,,,,,,,
1783160657,1783160657,7,0,4228.589844,4321.666504,4437.179688,4317.820313,4149.358887,4343.974121,4494.230957,4451.922852,4581.153809,4482.563965,4577.692383,4706.922852,4531.153809,4729.871582,0,1,34,,,,0,4,0,4,4,4,1,0,0,4,4,2,4,4,4,0,,,,,,,,,,,,,,,,,,,,,,,,,,,,,,,,,,,,,,,,,,,,,,,,,,,,,,,,,,,
1783160657,1783160657,8,0,4219.102539,4323.077148,4431.282227,4295.128418,4159.743652,4345.384766,4498.717773,4452.692383,4572.563965,4458.846191,4574.358887,4695.897461,4531.410156,4718.461426,1863,1,34,,,,0,4,0,4,4,4,1,0,0,4,4,2,4,4,4,0,,,,,,,,,,,,,,,,,,,,,,,,,,,,,,,,,,,,,,,,,,,,,,,,1,0,0.665455,0.277161,-0.612854,0.323669,0.840923,-0.049811,0.13527,-10.633153,30.081944,20.253984
1783160657,1783160657,9,0,4216.538574,4324.487305,4427.179688,4276.153809,4170.256348,4350.769043,4502.436035,4453.461426,4568.846191,4444.358887,4573.077148,4685.641113,4537.436035,4706.282227,2379,1,34,,,,0,4,0,4,4,4,1,0,0,4,4,2,4,4,4,0,,,,,,,,,,,,,,,,,,,,,,,,,,,,,,,,,,,,,,,,,,,,,,,,,,,,,,,,,,,
1783160657,1783160657,10,0,4219.871582,4325.128418,4426.153809,4266.410156,4180.641113,4357.563965,4505.128418,4453.333496,4565.384766,4433.846191,4572.94873,4678.205078,4546.410156,4693.846191,2540,1,34,,,,0,4,0,4,4,4,1,0,0,4,4,2,4,4,4,0,,,,,,,,,,,,,,,,,,,,,,,,,,,,,,,,,,,,,,,,,,,,,,,,,,,,,,,,,,,
1783160657,1783160657,11,0,4223.333496,4324.871582,4427.692383,4265.512695,4191.282227,4363.205078,4509.230957,4453.205078,4558.205078,4418.717773,4572.94873,4674.743652,4553.077148,4681.025879,2677,1,34,,,,0,4,0,4,4,4,1,0,0,4,4,2,4,4,4,0,,,,,,,,,,,,,,,,,,,,,,,,,,,,,,,,,,,,,,,,,,,,,,,,,,,,,,,,,,,
1783160657,1783160657,12,0,4220.769043,4324.102539,4430,4267.692383,4202.820313,4366.666504,4516.794922,4454.358887,4547.05127,4393.846191,4572.436035,4675.128418,4553.846191,4667.179688,926,1,34,,,,0,4,0,4,4,4,1,0,0,4,4,2,4,4,4,0,,,,,,,,,,,,,,,,,,,,,,,,,,,,,,,,,,,,,,,,,,,,,,,,,,,,,,,,,,,
1783160657,1783160657,13,0,4209.615234,4323.205078,4431.153809,4267.563965,4213.717773,4368.717773,4527.820313,4457.179688,4534.487305,4360.769043,4571.538574,4677.436035,4548.974121,4650.897461,2413,1,34,,,,0,4,0,4,4,4,1,0,0,4,4,2,4,4,4,0,,,,,,,,,,,,,,,,,,,,,,,,,,,,,,,,,,,,,,,,,,,,,,,,,,,,,,,,,,,
1783160657,1783160657,14,0,4193.846191,4323.077148,4430.256348,4263.333496,4221.410156,4370.641113,4538.846191,4459.743652,4524.230957,4327.563965,4570,4678.846191,4542.436035,4632.563965,2540,1,34,,,,0,4,0,4,4,4,1,0,0,4,4,2,4,4,4,0,,,,,,,,,,,,,,,,,,,,,,,,,,,,,,,,,,,,,,,,,,,,,,,,,,,,,,,,,,,
1783160657,1783160657,15,0,4181.666504,4324.230957,4427.307617,4257.94873,4225,4373.205078,4546.410156,4461.025879,4518.846191,4302.94873,4567.820313,4678.333496,4539.487305,4614.743652,2677,1,34,,,,0,4,0,4,4,4,1,0,0,4,4,2,4,4,4,0,,,,,,,,,,,,,,,,,,,,,,,,,,,,,,,,,,,,,,,,,,,,,,,,,,,,,,,,,,,
1783160657,1783160657,16,0,4179.102539,4326.410156,4424.358887,4256.153809,4227.436035,4376.153809,4550.384766,4461.025879,4519.230957,4290.769043,4566.794922,4678.077148,4544.358887,4602.436035,926,1,34,,,,0,4,0,4,4,4,1,0,0,4,4,2,4,4,4,0,,,,,,,,,,,,,,,,,,,,,,,,,,,,,,,,,,,,,,,,,,,,,,,,2,0,0.668853,0.27124,-0.617737,0.312195,0.86534,-0.033207,0.139177,-10.686504,30.523748,20.378586
1783160657,1783160657,17,0,4186.538574,4328.717773,4423.717773,4259.743652,4232.820313,4378.589844,4553.461426,4461.410156,4523.846191,4288.717773,4568.974121,4681.794922,4557.692383,4598.846191,2413,1,34,,,,0,4,0,4,4,4,1,0,0,4,4,2,4,4,4,0,,,,,,,,,,,,,,,,,,,,,,,,,,,,,,,,,,,,,,,,,,,,,,,,,,,,,,,,,,,
1783160657,1783160657,18,0,4199.358887,4329.615234,4427.307617,4267.179688,4242.692383,4379.743652,4558.589844,4462.820313,4530.256348,4290.256348,4576.025879,4690.512695,4576.666504,4602.820313,2540,1,34,,,,0,4,0,4,4,4,1,0,0,4,4,2,4,4,4,0,,,,,,,,,,,,,,,,,,,,,,,,,,,,,,,,,,,,,,,,,,,,,,,,,,,,,,,,,,,
1783160657,1783160657,19,0,4210.512695,4328.205078,4434.230957,4274.102539,4253.333496,4378.717773,4565.128418,4464.230957,4534.358887,4289.230957,4585.897461,4700.512695,4595.384766,4608.846191,2677,1,34,,,,0,4,0,4,4,4,1,0,0,4,4,2,4,4,4,0,,,,,,,,,,,,,,,,,,,,,,,,,,,,,,,,,,,,,,,,,,,,,,,,,,,,,,,,,,,
1783160657,1783160657,20,0,4215,4324.743652,4440.897461,4277.820313,4259.102539,4375.512695,4569.230957,4463.717773,4532.94873,4282.563965,4593.974121,4705.641113,4607.436035,4610.384766,926,1,34,,,,0,4,0,4,4,4,1,0,0,4,4,2,4,4,4,0,,,,,,,,,,,,,,,,,,,,,,,,,,,,,,,,,,,,,,,,,,,,,,,,,,,,,,,,,,,
1783160657,1783160657,21,0,4211.025879,4320.897461,4443.205078,4278.717773,4257.179688,4370.512695,4567.94873,4460.641113,4524.871582,4270.256348,4595.641113,4702.692383,4608.717773,4603.974121,2413,1,34,,,,0,4,0,4,4,4,1,0,0,4,4,2,4,4,4,0,,,,,,,,,,,,,,,,,,,,,,,,,,,,,,,,,,,,,,,,,,,,,,,,,,,,,,,,,,,
1783160657,1783160657,22,0,4200.256348,4317.94873,4438.846191,4278.333496,4249.230957,4365.512695,4562.436035,4456.153809,4511.794922,4253.077148,4590,4693.461426,4600.256348,4590.641113,2540,1,34,,,,0,4,0,4,4,4,1,0,0,4,4,2,4,4,4,0,,,,,,,,,,,,,,,,,,,,,,,,,,,,,,,,,,,,,,,,,,,,,,,,,,,,,,,,,,,
1783160657,1783160657,23,0,4186.794922,4316.922852,4429.102539,4277.820313,4240.384766,4362.692383,4556.538574,4452.563965,4497.307617,4232.820313,4581.282227,4683.589844,4587.820313,4576.153809,2677,1,34,,,,0,4,0,4,4,4,1,0,0,4,4,2,4,4,4,0,,,,,,,,,,,,,,,,,,,,,,,,,,,,,,,,,,,,,,,,,,,,,,,,,,,,,,,,,,,
1783160657,1783160657,24,0,4174.743652,4317.307617,4418.846191,4277.179688,4236.282227,4363.077148,4553.077148,4451.410156,4485.512695,4212.179688,4575.256348,4678.077148,4579.358887,4567.05127,926,1,34,,,,0,4,0,4,4,4,1,0,0,4,4,2,4,4,4,0,,,,,,,,,,,,,,,,,,,,,,,,,,,,,,,,,,,,,,,,,,,,,,,,3,0,0.66991,0.268005,-0.621948,0.30426,0.861433,0.004883,0.133805,-10.717854,31.138041,20.22406
1783160657,1783160657,25,0,4167.692383,4318.077148,4412.820313,4276.538574,4239.487305,4365,4551.410156,4452.05127,4478.589844,4195,4574.358887,4678.333496,4580.384766,4566.922852,2413,1,34,,,,0,4,0,4,4,4,1,0,0,4,4,2,4,4,4,0,,,,,,,,,,,,,,,,,,,,,,,,,,,,,,,,,,,,,,,,,,,,,,,,,,,,,,,,,,,
1783160657,1783160657,26,0,4166.025879,4318.461426,4411.922852,4275.769043,4248.461426,4365.512695,4549.615234,4451.922852,4475.128418,4182.692383,4576.282227,4681.666504,4589.743652,4571.666504,2540,1,34,,,,0,4,0,4,4,4,1,0,0,4,4,2,4,4,4,0,,,,,,,,,,,,,,,,,,,,,,,,,,,,,,,,,,,,,,,,,,,,,,,,,,,,,,,,,,,
1783160657,1783160657,27,0,4166.666504,4318.333496,4412.563965,4274.102539,4257.307617,4362.179688,4546.153809,4449.615234,4471.666504,4172.820313,4576.282227,4683.589844,4599.615234,4571.794922,2677,1,34,,,,0,4,0,4,4,4,1,0,0,4,4,2,4,4,4,0,,,,,,,,,,,,,,,,,,,,,,,,,,,,,,,,,,,,,,,,,,,,,,,,,,,,,,,,,,,
1783160657,1783160657,28,0,4165.384766,4318.333496,4410.384766,4270.256348,4259.743652,4355.897461,4542.179688,4445.256348,4465.384766,4161.538574,4571.794922,4681.666504,4599.871582,4559.487305,926,1,34,,,,0,4,0,4,4,4,1,0,0,4,4,2,4,4,4,0,,,,,,,,,,,,,,,,,,,,,,,,,,,,,,,,,,,,,,,,,,,,,,,,,,,,,,,,,,,
1783160657,1783160657,29,0,4159.615234,4318.589844,4403.846191,4264.230957,4253.333496,4350.384766,4539.358887,4441.025879,4456.025879,4146.538574,4565,4676.025879,4586.410156,4534.871582,2413,1,34,,,,0,4,0,4,4,4,1,0,0,4,4,2,4,4,4,0,,,,,,,,,,,,,,,,,,,,,,,,,,,,,,,,,,,,,,,,,,,,,,,,,,,,,,,,,,,
1783160657,1783160657,30,0,4149.743652,4318.974121,4395.512695,4258.461426,4241.538574,4349.230957,4538.461426,4438.974121,4446.538574,4130.256348,4560.897461,4669.487305,4564.102539,4507.820313,2540,1,34,,,,0,4,0,4,4,4,1,0,0,4,4,2,4,4,4,0,,,,,,,,,,,,,,,,,,,,,,,,,,,,,,,,,,,,,,,,,,,,,,,,,,,,,,,,,,,
1783160657,1783160657,31,0,4139.743652,4319.102539,4389.102539,4256.666504,4231.153809,4353.205078,4539.358887,4439.871582,4440.512695,4117.179688,4562.179688,4664.743652,4543.461426,4489.487305,2677,1,34,,,,0,4,0,4,4,4,1,0,0,4,4,2,4,4,4,0,,,,,,,,,,,,,,,,,,,,,,,,,,,,,,,,,,,,,,,,,,,,,,,,,,,,,,,,,,,
1783160657,1783160657,32,0,4134.487305,4318.589844,4385.897461,4261.282227,4228.589844,4359.615234,4541.538574,4442.05127,4439.230957,4110.769043,4567.05127,4663.205078,4532.820313,4483.205078,0,1,34,,,,0,4,0,4,4,4,1,0,0,4,4,2,4,4,4,0,,,,,,,,,,,,,,,,,,,,,,,,,,,,,,,,,,,,,,,,,,,,,,,,4,0,0.670519,0.26532,-0.626404,0.296021,0.908314,0.054206,0.088878,-10.762735,31.674236,20.184988
1783160657,1783160657,33,0,4136.666504,4318.077148,4383.717773,4271.153809,4235.512695,4364.358887,4543.717773,4443.077148,4441.153809,4111.282227,4571.538574,4663.589844,4533.461426,4482.692383,0,1,34,,,,0,4,0,4,4,4,1,0,0,4,4,2,4,4,4,0,,,,,,,,,,,,,,,,,,,,,,,,,,,,,,,,,,,,,,,,,,,,,,,,,,,,,,,,,,,
1783160657,1783160657,34,0,4144.615234,4318.077148,4380.128418,4281.794922,4248.589844,4365,4543.846191,4440.769043,4443.461426,4114.102539,4573.077148,4663.205078,4538.974121,4479.743652,0,1,34,,,,0,4,0,4,4,4,1,0,0,4,4,2,4,4,4,0,,,,,,,,,,,,,,,,,,,,,,,,,,,,,,,,,,,,,,,,,,,,,,,,,,,,,,,,,,,
1783160657,1783160658,35,0,4152.692383,4318.717773,4374.871582,4288.333496,4261.410156,4361.538574,4540.384766,4435.641113,4443.077148,4112.563965,4571.794922,4660.512695,4541.282227,4472.179688,0,1,34,,,,0,4,0,4,4,4,1,0,0,4,4,2,4,4,4,0,,,,,,,,,,,,,,,,,,,,,,,,,,,,,,,,,,,,,,,,,,,,,,,,,,,,,,,,,,,
1783160657,1783160658,36,0,4154.871582,4319.102539,4371.025879,4288.717773,4267.179688,4356.922852,4534.102539,4430.256348,4438.333496,4102.179688,4569.615234,4655.512695,4535.769043,4465.769043,0,1,34,,,,0,4,0,4,4,4,1,0,0,4,4,2,4,4,4,0,,,,,,,,,,,,,,,,,,,,,,,,,,,,,,,,,,,,,,,,,,,,,,,,,,,,,,,,,,,
1783160657,1783160658,37,0,4149.615234,4318.717773,4372.05127,4284.743652,4262.436035,4354.358887,4528.077148,4427.563965,4429.358887,4083.205078,4567.820313,4649.615234,4523.974121,4469.358887,0,1,34,,,,0,4,0,4,4,4,1,0,0,4,4,2,4,4,4,0,,,,,,,,,,,,,,,,,,,,,,,,,,,,,,,,,,,,,,,,,,,,,,,,,,,,,,,,,,,
1783160657,1783160658,38,0,4141.922852,4317.692383,4378.333496,4280.897461,4249.871582,4355,4525.256348,4428.333496,4418.846191,4062.179443,4567.05127,4645.128418,4511.922852,4488.077148,0,1,34,,,,0,4,0,4,4,4,1,0,0,4,4,2,4,4,4,0,,,,,,,,,,,,,,,,,,,,,,,,,,,,,,,,,,,,,,,,,,,,,,,,,,,,,,,,,,,
1783160657,1783160658,39,0,4140.128418,4317.307617,4386.922852,4281.153809,4236.666504,4356.794922,4525.128418,4430,4410.384766,4047.564209,4567.307617,4644.871582,4506.666504,4519.230957,0,1,34,,,,0,4,0,4,4,4,1,0,0,4,4,2,4,4,4,0,,,,,,,,,,,,,,,,,,,,,,,,,,,,,,,,,,,,,,,,,,,,,,,,,,,,,,,,,,,
1783160657,1783160658,40,0,4148.974121,4318.205078,4393.589844,4285.769043,4229.871582,4356.410156,4524.230957,4429.358887,4407.05127,4044.102539,4568.717773,4650.512695,4510.641113,4553.846191,0,1,34,,,,0,4,0,4,4,4,1,0,0,4,4,2,4,4,4,0,,,,,,,,,,,,,,,,,,,,,,,,,,,,,,,,,,,,,,,,,,,,,,,,5,0,0.671616,0.261353,-0.632324,0.284241,0.889757,0.051276,0.109388,-10.703128,32.256813,20.133156
1783160657,1783160658,41,0,4165.641113,4319.615234,4396.922852,4292.563965,4230.769043,4352.307617,4520,4425.641113,4409.615234,4050.128174,4571.666504,4660.256348,4520.128418,4581.025879,0,1,34,,,,0,4,0,4,4,4,1,0,0,4,4,2,4,4,4,0,,,,,,,,,,,,,,,,,,,,,,,,,,,,,,,,,,,,,,,,,,,,,,,,,,,,,,,,,,,
1783160657,1783160658,42,0,4182.05127,4319.871582,4398.846191,4299.102539,4235.512695,4346.794922,4513.461426,4421.025879,4416.025879,4059.358887,4576.794922,4669.743652,4527.94873,4595.384766,0,1,34,,,,0,4,0,4,4,4,1,0,0,4,4,2,4,4,4,0,,,,,,,,,,,,,,,,,,,,,,,,,,,,,,,,,,,,,,,,,,,,,,,,,,,,,,,,,,,
1783160657,1783160658,43,0,4190.897461,4317.94873,4401.922852,4305.256348,4239.102539,4343.717773,4508.333496,4418.717773,4422.179688,4063.974365,4583.333496,4674.871582,4528.846191,4598.589844,0,1,34,,,,0,4,0,4,4,4,1,0,0,4,4,2,4,4,4,0,,,,,,,,,,,,,,,,,,,,,,,,,,,,,,,,,,,,,,,,,,,,,,,,,,,,,,,,,,,
1783160657,1783160658,44,0,4190.641113,4313.846191,4405,4312.05127,4239.487305,4345.256348,4507.179688,4419.615234,4423.333496,4059.487061,4588.589844,4675.641113,4522.307617,4596.922852,0,1,34,,,,0,4,0,4,4,4,1,0,0,4,4,2,4,4,4,0,,,,,,,,,,,,,,,,,,,,,,,,,,,,,,,,,,,,,,,,,,,,,,,,,,,,,,,,,,,
1783160657,1783160658,45,0,4186.922852,4309.487305,4403.077148,4319.743652,4237.179688,4350.384766,4508.846191,4421.666504,4417.820313,4046.538574,4589.743652,4675,4511.922852,4596.282227,0,1,34,,,,0,4,0,4,4,4,1,0,0,4,4,2,4,4,4,0,,,,,,,,,,,,,,,,,,,,,,,,,,,,,,,,,,,,,,,,,,,,,,,,,,,,,,,,,,,
1783160657,1783160658,46,0,4187.05127,4307.179688,4391.922852,4327.436035,4233.589844,4356.025879,4509.871582,4422.563965,4407.94873,4030.256348,4586.794922,4676.025879,4502.94873,4599.743652,0,1,34,,,,0,4,0,4,4,4,1,0,0,4,4,2,4,4,4,0,,,,,,,,,,,,,,,,,,,,,,,,,,,,,,,,,,,,,,,,,,,,,,,,,,,,,,,,,,,
1783160657,1783160658,47,0,4193.846191,4307.94873,4371.794922,4333.846191,4230.128418,4359.102539,4507.05127,4421.794922,4399.102539,4017.564209,4582.94873,4679.102539,4500.256348,4608.205078,0,1,34,,,,0,4,0,4,4,4,1,0,0,4,4,2,4,4,4,0,,,,,,,,,,,,,,,,,,,,,,,,,,,,,,,,,,,,,,,,,,,,,,,,,,,,,,,,,,,
1783160657,1783160658,48,0,4204.230957,4310.769043,4349.743652,4338.333496,4227.307617,4358.077148,4500.769043,4420.769043,4396.538574,4013.333252,4582.436035,4682.692383,4505.128418,4621.410156,0,1,34,,,,0,4,0,4,4,4,1,0,0,4,4,2,4,4,4,0,,,,,,,,,,,,,,,,,,,,,,,,,,,,,,,,,,,,,,,,,,,,,,,,6,0,0.672768,0.258484,-0.635254,0.277527,0.936149,0.090343,0.086436,-10.499482,33.047798,19.986507
1783160657,1783160658,49,0,4212.94873,4313.717773,4334.230957,4341.538574,4224.871582,4354.230957,4493.717773,4420.384766,4400.384766,4016.410156,4585.384766,4684.615234,4513.974121,4635,0,1,34,,,,0,4,0,4,4,4,1,0,0,4,4,2,4,4,4,0,,,,,,,,,,,,,,,,,,,,,,,,,,,,,,,,,,,,,,,,,,,,,,,,,,,,,,,,,,,
1783160657,1783160658,50,0,4216.666504,4315.256348,4328.974121,4343.333496,4221.025879,4350.897461,4488.717773,4419.871582,4405,4020.384521,4587.820313,4683.333496,4519.487305,4639.871582,0,1,34,,,,0,4,0,4,4,4,1,0,0,4,4,2,4,4,4,0,,,,,,,,,,,,,,,,,,,,,,,,,,,,,,,,,,,,,,,,,,,,,,,,,,,,,,,,,,,
1783160657,1783160658,51,0,4214.102539,4315.256348,4331.282227,4342.563965,4213.589844,4350.897461,4486.794922,4417.307617,4403.077148,4016.666748,4583.974121,4677.307617,4513.589844,4626.282227,0,1,34,,,,0,4,0,4,4,4,1,0,0,4,4,2,4,4,4,0,,,,,,,,,,,,,,,,,,,,,,,,,,,,,,,,,,,,,,,,,,,,,,,,,,,,,,,,,,,
1783160657,1783160658,52,0,4206.282227,4314.230957,4334.230957,4338.589844,4202.563965,4354.487305,4486.538574,4412.307617,4391.153809,4001.794922,4572.307617,4666.025879,4494.487305,4592.307617,0,1,34,,,,0,4,0,4,4,4,1,0,0,4,4,2,4,4,4,0,,,,,,,,,,,,,,,,,,,,,,,,,,,,,,,,,,,,,,,,,,,,,,,,,,,,,,,,,,,
1783160657,1783160658,53,0,4197.05127,4312.94873,4333.717773,4333.589844,4190.769043,4359.230957,4485.897461,4407.05127,4373.846191,3980.641113,4557.307617,4652.563965,4469.487305,4549.615234,0,1,34,,,,0,4,0,4,4,4,1,0,0,4,4,2,4,4,4,0,,,,,,,,,,,,,,,,,,,,,,,,,,,,,,,,,,,,,,,,,,,,,,,,,,,,,,,,,,,
1783160657,1783160658,54,0,4192.05127,4311.794922,4331.538574,4332.05127,4182.692383,4361.666504,4482.692383,4404.230957,4360.512695,3963.333252,4547.307617,4643.974121,4451.666504,4518.077148,0,1,34,,,,0,4,0,4,4,4,1,0,0,4,4,2,4,4,4,0,,,,,,,,,,,,,,,,,,,,,,,,,,,,,,,,,,,,,,,,,,,,,,,,,,,,,,,,,,,
1783160657,1783160658,55,0,4196.538574,4311.282227,4333.077148,4337.692383,4181.410156,4360.128418,4475.897461,4404.230957,4358.333496,3959.230713,4547.94873,4646.794922,4451.794922,4512.692383,0,1,34,,,,0,4,0,4,4,4,1,0,0,4,4,2,4,4,4,0,,,,,,,,,,,,,,,,,,,,,,,,,,,,,,,,,,,,,,,,,,,,,,,,,,,,,,,,,,,
1783160657,1783160658,56,0,4211.153809,4311.153809,4342.179688,4349.871582,4186.153809,4355.384766,4466.153809,4405.384766,4366.025879,3969.743652,4558.461426,4661.922852,4470.128418,4532.179688,0,1,34,,,,0,4,0,4,4,4,1,0,0,4,4,2,4,4,4,0,,,,,,,,,,,,,,,,,,,,,,,,,,,,,,,,,,,,,,,,,,,,,,,,7,0,0.675469,0.254883,-0.638489,0.266663,0.972775,0.081553,0.075204,-10.399534,33.87635,20.17119
1783160657,1783160658,57,0,4231.025879,4311.282227,4356.666504,4363.461426,4192.94873,4350,4455.512695,4405.384766,4374.743652,3986.281982,4572.563965,4682.692383,4495.897461,4559.487305,0,1,34,,,,0,4,0,4,4,4,1,0,0,4,4,2,4,4,4,0,,,,,,,,,,,,,,,,,,,,,,,,,,,,,,,,,,,,,,,,,,,,,,,,,,,,,,,,,,,
1783160657,1783160658,58,0,4247.692383,4310.769043,4368.974121,4371.153809,4196.410156,4345.641113,4446.538574,4403.461426,4374.871582,3995.512939,4582.94873,4698.846191,4514.487305,4574.230957,0,1,34,,,,0,4,0,4,4,4,1,0,0,4,4,2,4,4,4,0,,,,,,,,,,,,,,,,,,,,,,,,,,,,,,,,,,,,,,,,,,,,,,,,,,,,,,,,,,,
1783160657,1783160658,59,0,4253.717773,4309.102539,4371.922852,4368.589844,4193.077148,4342.179688,4440.641113,4400.384766,4362.94873,3987.435791,4585.641113,4703.205078,4517.179688,4566.538574,0,1,34,,,,0,4,0,4,4,4,1,0,0,4,4,2,4,4,4,0,,,,,,,,,,,,,,,,,,,,,,,,,,,,,,,,,,,,,,,,,,,,,,,,,,,,,,,,,,,
1783160657,1783160658,60,0,4247.436035,4306.922852,4364.743652,4357.179688,4184.358887,4339.615234,4438.077148,4397.563965,4343.333496,3962.564209,4581.666504,4696.666504,4506.410156,4543.846191,0,1,34,,,,0,4,0,4,4,4,1,0,0,4,4,2,4,4,4,0,,,,,,,,,,,,,,,,,,,,,,,,,,,,,,,,,,,,,,,,,,,,,,,,,,,,,,,,,,,
1783160657,1783160658,61,0,4234.743652,4305.769043,4353.589844,4343.717773,4175.384766,4338.333496,4437.05127,4395.769043,4325.256348,3932.692383,4575.769043,4686.666504,4493.461426,4523.974121,0,1,34,,,,0,4,0,4,4,4,1,0,0,4,4,2,4,4,4,0,,,,,,,,,,,,,,,,,,,,,,,,,,,,,,,,,,,,,,,,,,,,,,,,,,,,,,,,,,,
1783160657,1783160658,62,0,4223.717773,4306.666504,4346.282227,4335,4171.282227,4339.358887,4435.769043,4394.615234,4315.512695,3911.410156,4572.436035,4680.897461,4489.358887,4521.666504,0,1,34,,,,0,4,0,4,4,4,1,0,0,4,4,2,4,4,4,0,,,,,,,,,,,,,,,,,,,,,,,,,,,,,,,,,,,,,,,,,,,,,,,,,,,,,,,,,,,
1783160657,1783160658,63,0,4218.846191,4309.230957,4344.743652,4331.410156,4172.307617,4341.922852,4432.05127,4393.205078,4313.077148,3904.871826,4571.794922,4681.282227,4496.794922,4536.153809,0,1,34,,,,0,4,0,4,4,4,1,0,0,4,4,2,4,4,4,0,,,,,,,,,,,,,,,,,,,,,,,,,,,,,,,,,,,,,,,,,,,,,,,,,,,,,,,,,,,
1783160657,1783160658,64,0,4216.922852,4311.922852,4345,4328.333496,4174.487305,4344.102539,4425,4390.897461,4311.794922,3907.94873,4570.897461,4683.077148,4508.589844,4553.205078,0,1,34,,,,0,4,0,4,4,4,1,0,0,4,4,2,4,4,4,0,,,,,,,,,,,,,,,,,,,,,,,,,,,,,,,,,,,,,,,,,,,,,,,,8,0,0.676528,0.252686,-0.64093,0.260132,0.992797,0.074716,0.038579,-10.259581,34.588718,20.137403
1783160657,1783160658,65,0,4211.922852,4312.563965,4340.769043,4320.256348,4173.461426,4342.94873,4415.384766,4387.563965,4306.153809,3910.128174,4566.666504,4679.615234,4515,4557.692383,0,1,34,,,,0,4,0,4,4,4,1,0,0,4,4,2,4,4,4,0,,,,,,,,,,,,,,,,,,,,,,,,,,,,,,,,,,,,,,,,,,,,,,,,,,,,,,,,,,,
1783160657,1783160658,66,0,4201.025879,4310.641113,4330.256348,4306.922852,4169.615234,4337.692383,4406.410156,4384.102539,4295.641113,3905.128174,4560.128418,4670,4512.05127,4546.153809,0,1,34,,,,0,4,0,4,4,4,1,0,0,4,4,2,4,4,4,0,,,,,,,,,,,,,,,,,,,,,,,,,,,,,,,,,,,,,,,,,,,,,,,,,,,,,,,,,,,
1783160657,1783160658,67,0,4187.692383,4307.563965,4316.922852,4293.589844,4167.05127,4330.384766,4401.538574,4381.666504,4286.025879,3895,4555.256348,4660.897461,4504.615234,4527.692383,0,1,34,,,,0,4,0,4,4,4,1,0,0,4,4,2,4,4,4,0,,,,,,,,,,,,,,,,,,,,,,,,,,,,,,,,,,,,,,,,,,,,,,,,,,,,,,,,,,,
1783160657,1783160658,68,0,4179.358887,4305.384766,4307.563965,4287.05127,4168.461426,4325.512695,4402.436035,4381.025879,4282.820313,3887.05127,4556.282227,4659.871582,4501.153809,4514.743652,0,1,34,,,,0,4,0,4,4,4,1,0,0,4,4,2,4,4,4,0,,,,,,,,,,,,,,,,,,,,,,,,,,,,,,,,,,,,,,,,,,,,,,,,,,,,,,,,,,,
1783160657,1783160658,69,0,4181.025879,4305.512695,4307.820313,4290.512695,4172.307617,4326.666504,4407.179688,4382.05127,4287.307617,3885.897461,4563.333496,4668.589844,4506.282227,4512.436035,0,1,34,,,,0,4,0,4,4,4,1,0,0,4,4,2,4,4,4,0,,,,,,,,,,,,,,,,,,,,,,,,,,,,,,,,,,,,,,,,,,,,,,,,,,,,,,,,,,,
1783160657,1783160658,70,0,4190.128418,4307.05127,4317.94873,4301.410156,4173.846191,4333.846191,4411.282227,4383.333496,4295,3890,4572.436035,4679.743652,4517.179688,4516.282227,0,1,34,,,,0,4,0,4,4,4,1,0,0,4,4,2,4,4,4,0,,,,,,,,,,,,,,,,,,,,,,,,,,,,,,,,,,,,,,,,,,,,,,,,,,,,,,,,,,,
1783160657,1783160658,71,0,4198.846191,4308.589844,4331.538574,4312.563965,4170.128418,4343.077148,4410.897461,4383.461426,4299.102539,3893.076904,4577.820313,4684.358887,4526.666504,4518.589844,0,1,34,,,,0,4,0,4,4,4,1,0,0,4,4,2,4,4,4,0,,,,,,,,,,,,,,,,,,,,,,,,,,,,,,,,,,,,,,,,,,,,,,,,,,,,,,,,,,,
1783160657,1783160658,72,0,4199.743652,4308.717773,4340.384766,4317.05127,4162.179688,4349.102539,4406.282227,4382.436035,4296.153809,3889.102539,4577.307617,4678.717773,4529.358887,4515,0,1,34,,,,0,4,0,4,4,4,1,0,0,4,4,2,4,4,4,0,,,,,,,,,,,,,,,,,,,,,,,,,,,,,,,,,,,,,,,,,,,,,,,,9,0,0.676741,0.251221,-0.643555,0.254456,1.008912,0.079111,0.022952,-10.250289,35.246513,20.206997
1783160657,1783160658,73,0,4191.153809,4307.563965,4340,4312.563965,4154.102539,4349.743652,4401.666504,4381.666504,4287.94873,3877.05127,4573.333496,4666.794922,4524.358887,4506.922852,0,1,34,,,,0,4,0,4,4,4,1,0,0,4,4,2,4,4,4,0,,,,,,,,,,,,,,,,,,,,,,,,,,,,,,,,,,,,,,,,,,,,,,,,,,,,,,,,,,,
1783160657,1783160658,74,0,4176.922852,4306.410156,4331.666504,4302.692383,4148.333496,4346.666504,4401.153809,4382.563965,4279.230957,3860.256348,4569.743652,4655.641113,4514.487305,4498.461426,0,1,34,,,,0,4,0,4,4,4,1,0,0,4,4,2,4,4,4,0,1,0,1,0,1,1,0,1,0,0,1,0,2,1,1,0,,,,,,,,,,,,,,,,,,,,,,,,,,,,,,,,,,,,,,,,,,,
1783160657,1783160658,75,0,4162.05127,4306.410156,4320.128418,4293.589844,4145.128418,4342.307617,4404.487305,4384.871582,4273.205078,3844.743652,4568.717773,4649.102539,4503.846191,4491.794922,0,1,34,,,,0,4,0,4,4,4,1,0,0,4,4,2,4,4,4,0,,,,,,,,,,,,,,,,,,,,,,,,,,,,,,,,,,,,,,,,,,,,,,,,,,,,,,,,,,,
1783160657,1783160658,76,0,4151.410156,4307.307617,4310.128418,4289.487305,4142.563965,4338.717773,4407.563965,4386.922852,4270,3835.256348,4568.461426,4646.025879,4495,4485.256348,0,1,34,,,,0,4,0,4,4,4,1,0,0,4,4,2,4,4,4,0,,,,,,,,,,,,,,,,,,,,,,,,,,,,,,,,,,,,,,,,,,,,,,,,,,,,,,,,,,,
1783160657,1783160658,77,0,4147.820313,4307.94873,4305.384766,4291.538574,4139.102539,4336.538574,4406.666504,4387.436035,4268.846191,3833.205078,4566.666504,4644.743652,4489.487305,4476.025879,0,1,34,,,,0,4,0,4,4,4,1,0,0,4,4,2,4,4,4,0,,,,,,,,,,,,,,,,,,,,,,,,,,,,,,,,,,,,,,,,,,,,,,,,,,,,,,,,,,,
1783160657,1783160658,78,0,4152.436035,4307.820313,4307.307617,4297.820313,4135.384766,4336.025879,4401.666504,4386.794922,4269.358887,3836.923096,4562.820313,4645.769043,4487.94873,4463.205078,0,1,34,,,,0,4,0,4,4,4,1,0,0,4,4,2,4,4,4,0,,,,,,,,,,,,,,,,,,,,,,,,,,,,,,,,,,,,,,,,,,,,,,,,,,,,,,,,,,,
1783160657,1783160658,79,0,4163.205078,4307.436035,4315.128418,4305.769043,4133.333496,4337.563965,4395.897461,4386.025879,4271.153809,3841.923096,4558.717773,4651.025879,4489.487305,4450.128418,0,1,34,,,,0,4,0,4,4,4,1,0,0,4,4,2,4,4,4,0,,,,,,,,,,,,,,,,,,,,,,,,,,,,,,,,,,,,,,,,,,,,,,,,,,,,,,,,,,,
1783160657,1783160658,80,0,4175,4307.563965,4325.512695,4312.820313,4133.717773,4340.384766,4394.102539,4386.282227,4272.307617,3843.974365,4556.025879,4659.358887,4492.563965,4442.692383,0,1,34,,,,0,4,0,4,4,4,1,0,0,4,4,2,4,4,4,0,,,,,,,,,,,,,,,,,,,,,,,,,,,,,,,,,,,,,,,,,,,,,,,,10,0,0.676079,0.249695,-0.647522,0.247559,0.975217,0.112318,0.000488,-9.941927,36.005196,20.119631
1783160657,1783160658,81,0,4182.05127,4308.333496,4333.077148,4316.282227,4134.230957,4343.205078,4397.563965,4387.692383,4270.512695,3840,4554.615234,4664.871582,4494.743652,4443.974121,0,1,34,,,,0,4,0,4,4,4,1,0,0,4,4,2,4,4,4,0,,,,,,,,,,,,,,,,,,,,,,,,,,,,,,,,,,,,,,,,,,,,,,,,,,,,,,,,,,,
1783160657,1783160658,82,0,4180.128418,4309.230957,4333.205078,4313.333496,4131.153809,4344.230957,4403.846191,4389.102539,4265,3830.128174,4553.846191,4661.282227,4493.846191,4451.794922,0,1,34,,,,0,4,0,4,4,4,1,0,0,4,4,2,4,4,4,0,,,,,,,,,,,,,,,,,,,,,,,,,,,,,,,,,,,,,,,,,,,,,,,,,,,,,,,,,,,
1783160657,1783160658,83,0,4170.128418,4309.487305,4325.384766,4304.102539,4123.717773,4343.589844,4408.205078,4389.615234,4257.820313,3817.435791,4553.717773,4647.436035,4489.230957,4459.487305,0,1,34,,,,0,4,0,4,4,4,1,0,0,4,4,2,4,4,4,0,,,,,,,,,,,,,,,,,,,,,,,,,,,,,,,,,,,,,,,,,,,,,,,,,,,,,,,,,,,
1783160657,1783160658,84,0,4157.436035,4308.974121,4314.743652,4293.077148,4114.230957,4342.94873,4407.94873,4389.230957,4252.307617,3805.512939,4554.487305,4630,4481.922852,4461.794922,0,1,34,,,,0,4,0,4,4,4,1,0,0,4,4,2,4,4,4,0,,,,,,,,,,,,,,,,,,,,,,,,,,,,,,,,,,,,,,,,,,,,,,,,,,,,,,,,,,,
1783160657,1783160658,85,0,4149.358887,4307.94873,4308.077148,4286.410156,4105.641113,4344.358887,4404.230957,4388.333496,4250,3797.179443,4556.153809,4618.589844,4474.743652,4458.205078,0,1,34,,,,0,4,0,4,4,4,1,0,0,4,4,2,4,4,4,0,,,,,,,,,,,,,,,,,,,,,,,,,,,,,,,,,,,,,,,,,,,,,,,,,,,,,,,,,,,
1783160657,1783160658,86,0,4149.102539,4307.563965,4310.128418,4287.820313,4098.461426,4348.717773,4401.025879,4387.94873,4249.743652,3791.923096,4557.307617,4619.230957,4470.128418,4451.794922,0,1,34,,,,0,4,0,4,4,4,1,0,0,4,4,2,4,4,4,0,,,,,,,,,,,,,,,,,,,,,,,,,,,,,,,,,,,,,,,,,,,,,,,,,,,,,,,,,,,
1783160657,1783160658,87,0,4155.641113,4308.333496,4319.102539,4296.538574,4091.666748,4355,4401.666504,4388.333496,4248.717773,3788.076904,4557.307617,4630.128418,4469.615234,4447.436035,0,1,34,,,,0,4,0,4,4,4,1,0,0,4,4,2,4,4,4,0,,,,,,,,,,,,,,,,,,,,,,,,,,,,,,,,,,,,,,,,,,,,,,,,,,,,,,,,,,,
1783160657,1783160658,88,0,4165.256348,4310.128418,4329.615234,4309.102539,4085.256348,4361.922852,4405.897461,4389.615234,4245.769043,3783.589844,4556.922852,4643.846191,4473.077148,4447.94873,0,1,34,,,,0,4,0,4,4,4,1,0,0,4,4,2,4,4,4,0,,,,,,,,,,,,,,,,,,,,,,,,,,,,,,,,,,,,,,,,,,,,,,,,11,0,0.675052,0.249695,-0.649841,0.244263,0.99182,0.09718,-0.002442,-9.747734,36.804676,20.124334
1783160657,1783160658,89,0,4175,4311.794922,4336.666504,4322.436035,4081.153809,4368.077148,4410,4391.153809,4242.179688,3778.461426,4558.077148,4653.461426,4479.615234,4453.589844,0,1,34,,,,0,4,0,4,4,4,1,0,0,4,4,2,4,4,4,0,,,,,,,,,,,,,,,,,,,,,,,,,,,,,,,,,,,,,,,,,,,,,,,,,,,,,,,,,,,
1783160657,1783160658,90,0,4183.333496,4312.05127,4338.846191,4334.230957,4081.281982,4371.922852,4410.128418,4391.794922,4240.769043,3774.102539,4562.563965,4657.179688,4488.077148,4462.436035,0,1,34,,,,0,4,0,4,4,4,1,0,0,4,4,2,4,4,4,0,,,,,,,,,,,,,,,,,,,,,,,,,,,,,,,,,,,,,,,,,,,,,,,,,,,,,,,,,,,
1783160657,1783160658,91,0,4189.615234,4310.256348,4338.717773,4342.94873,4084.230713,4372.692383,4404.871582,4390.897461,4242.692383,3772.564209,4570.256348,4657.692383,4496.794922,4472.05127,0,1,34,,,,0,4,0,4,4,4,1,0,0,4,4,2,4,4,4,0,,,,,,,,,,,,,,,,,,,,,,,,,,,,,,,,,,,,,,,,,,,,,,,,,,,,,,,,,,,
1783160657,1783160658,92,0,4194.102539,4307.05127,4339.615234,4347.436035,4085.384521,4370.512695,4397.05127,4389.230957,4247.05127,3774.743652,4578.974121,4659.102539,4503.974121,4480.256348,0,1,34,,,,0,4,0,4,4,4,1,0,0,4,4,2,4,4,4,0,,,,,,,,,,,,,,,,,,,,,,,,,,,,,,,,,,,,,,,,,,,,,,,,,,,,,,,,,,,
1783160657,1783160658,93,0,4196.922852,4303.846191,4342.820313,4347.05127,4079.358887,4366.538574,4391.153809,4388.589844,4250.769043,3778.205078,4585.256348,4661.922852,4507.94873,4485.512695,0,1,34,,,,0,4,0,4,4,4,1,0,0,4,4,2,4,4,4,0,,,,,,,,,,,,,,,,,,,,,,,,,,,,,,,,,,,,,,,,,,,,,,,,,,,,,,,,,,,
1783160657,1783160658,94,0,4198.461426,4302.05127,4345.128418,4341.922852,4064.102539,4363.077148,4389.743652,4390.128418,4251.025879,3779.230713,4586.153809,4663.846191,4507.05127,4487.05127,0,1,34,,,,0,4,0,4,4,4,1,0,0,4,4,2,4,4,4,0,,,,,,,,,,,,,,,,,,,,,,,,,,,,,,,,,,,,,,,,,,,,,,,,,,,,,,,,,,,
1783160657,1783160658,95,0,4198.077148,4302.05127,4342.307617,4333.205078,4042.94873,4361.538574,4392.05127,4393.077148,4246.153809,3773.846191,4580.897461,4662.05127,4500.897461,4484.230957,0,1,34,,,,0,4,0,4,4,4,1,0,0,4,4,2,4,4,4,0,,,,,,,,,,,,,,,,,,,,,,,,,,,,,,,,,,,,,,,,,,,,,,,,,,,,,,,,,,,
1783160657,1783160658,96,0,4195.512695,4303.461426,4333.589844,4323.333496,4023.205078,4363.205078,4395,4394.871582,4237.179688,3761.153809,4572.307617,4656.282227,4491.153809,4477.179688,0,1,34,,,,0,4,0,4,4,4,1,0,0,4,4,2,4,4,4,0,,,,,,,,,,,,,,,,,,,,,,,,,,,,,,,,,,,,,,,,,,,,,,,,12,0,0.67395,0.250549,-0.651611,0.241699,0.958125,0.10597,-0.022464,-9.806294,37.507542,19.978567
1783160657,1783160658,97,0,4192.179688,4304.871582,4323.205078,4316.794922,4011.025635,4368.333496,4395.769043,4393.974121,4227.05127,3744.102539,4565.128418,4649.358887,4481.538574,4467.307617,0,1,34,,,,0,4,0,4,4,4,1,0,0,4,4,2,4,4,4,0,,,,,,,,,,,,,,,,,,,,,,,,,,,,,,,,,,,,,,,,,,,,,,,,,,,,,,,,,,,
1783160657,1783160658,98,0,4190.128418,4305.384766,4318.205078,4316.666504,4007.94873,4375.641113,4394.487305,4391.282227,4219.230957,3728.974365,4563.974121,4644.615234,4475.128418,4457.436035,0,1,34,,,,0,4,0,4,4,4,1,0,0,4,4,2,4,4,4,0,,,,,,,,,,,,,,,,,,,,,,,,,,,,,,,,,,,,,,,,,,,,,,,,,,,,,,,,,,,
1783160657,1783160658,99,0,4190.641113,4304.487305,4322.436035,4322.692383,4009.487061,4382.692383,4393.205078,4389.743652,4215.769043,3721.538574,4569.230957,4642.563965,4473.461426,4449.743652,0,1,34,,,,0,4,0,4,4,4,1,0,0,4,4,2,4,4,4,0,,,,,,,,,,,,,,,,,,,,,,,,,,,,,,,,,,,,,,,,,,,,,,,,,,,,,,,,,,,
1783160657,1783160658,100,0,4192.563965,4303.077148,4333.461426,4330.384766,4009.102539,4386.410156,4393.974121,4391.153809,4217.179688,3723.589844,4577.179688,4641.282227,4474.743652,4445.897461,0,1,34,,,,0,4,0,4,4,4,1,0,0,4,4,2,4,4,4,0,,,,,,,,,,,,,,,,,,,,,,,,,,,,,,,,,,,,,,,,,,,,,,,,,,,,,,,,,,,
1783160657,1783160658,101,0,4194.102539,4302.563965,4345.512695,4334.743652,4002.05127,4385.641113,4396.282227,4394.487305,4221.282227,3730.128174,4581.666504,4638.205078,4475.641113,4445.384766,0,1,34,,,,0,4,0,4,4,4,1,0,0,4,4,2,4,4,4,0,,,,,,,,,,,,,,,,,,,,,,,,,,,,,,,,,,,,,,,,,,,,,,,,,,,,,,,,,,,
1783160657,1783160658,102,0,4194.102539,4304.358887,4353.077148,4333.205078,3988.205078,4382.692383,4398.333496,4397.179688,4223.589844,3733.846191,4578.589844,4633.077148,4473.205078,4446.666504,0,1,34,,,,0,4,0,4,4,4,1,0,0,4,4,2,4,4,4,0,,,,,,,,,,,,,,,,,,,,,,,,,,,,,,,,,,,,,,,,,,,,,,,,,,,,,,,,,,,
1783160657,1783160658,103,0,4193.077148,4307.820313,4354.743652,4328.077148,3971.153809,4381.794922,4398.589844,4397.436035,4219.358887,3729.358887,4568.846191,4628.077148,4466.153809,4447.436035,0,1,34,,,,0,4,0,4,4,4,1,0,0,4,4,2,4,4,4,0,,,,,,,,,,,,,,,,,,,,,,,,,,,,,,,,,,,,,,,,,,,,,,,,,,,,,,,,,,,
1783160657,1783160658,104,0,4192.563965,4311.153809,4352.563965,4323.717773,3956.410156,4385.769043,4397.563965,4396.025879,4208.205078,3718.076904,4557.820313,4625.897461,4456.282227,4446.666504,0,1,34,,,,0,4,0,4,4,4,1,0,0,4,4,2,4,4,4,0,,,,,,,,,,,,,,,,,,,,,,,,,,,,,,,,,,,,,,,,,,,,,,,,13,0,0.672644,0.253296,-0.65271,0.239502,0.94494,0.094738,0.010743,-9.558998,38.273453,19.93071
1783160657,1783160658,105,0,4193.461426,4312.563965,4350.897461,4323.589844,3948.333252,4393.846191,4396.538574,4395,4195.256348,3707.05127,4551.666504,4627.05127,4447.436035,4444.743652,0,1,34,,,,0,4,0,4,4,4,1,0,0,4,4,2,4,4,4,0,,,,,,,,,,,,,,,,,,,,,,,,,,,,,,,,,,,,,,,,,,,,,,,,,,,,,,,,,,,
1783160657,1783160658,106,0,4195.769043,4311.282227,4352.436035,4327.820313,3948.461426,4402.179688,4396.282227,4395.897461,4187.307617,3704.102539,4552.692383,4630.256348,4442.563965,4443.846191,0,1,34,,,,0,4,0,4,4,4,1,0,0,4,4,2,4,4,4,0,,,,,,,,,,,,,,,,,,,,,,,,,,,,,,,,,,,,,,,,,,,,,,,,,,,,,,,,,,,
1783160657,1783160658,107,0,4198.974121,4307.820313,4355.897461,4332.94873,3953.589844,4406.666504,4396.666504,4398.589844,4187.94873,3711.410156,4557.05127,4633.333496,4442.563965,4446.410156,0,1,34,,,,0,4,0,4,4,4,1,0,0,4,4,2,4,4,4,0,,,,,,,,,,,,,,,,,,,,,,,,,,,,,,,,,,,,,,,,,,,,,,,,,,,,,,,,,,,
1783160657,1783160658,108,0,4202.307617,4303.974121,4358.077148,4335.256348,3957.179443,4406.410156,4397.179688,4400.897461,4195.384766,3724.487061,4558.205078,4634.615234,4445,4452.307617,0,1,34,,,,0,4,0,4,4,4,1,0,0,4,4,2,4,4,4,0,,,,,,,,,,,,,,,,,,,,,,,,,,,,,,,,,,,,,,,,,,,,,,,,,,,,,,,,,,,
1783160657,1783160658,109,0,4204.487305,4301.666504,4356.666504,4332.436035,3953.718018,4403.205078,4398.589844,4401.282227,4203.974121,3736.410156,4553.077148,4634.230957,4446.153809,4457.820313,0,1,34,,,,0,4,0,4,4,4,1,0,0,4,4,2,4,4,4,0,,,,,,,,,,,,,,,,,,,,,,,,,,,,,,,,,,,,,,,,,,,,,,,,,,,,,,,,,,,
1783160657,1783160658,110,0,4205.512695,4301.922852,4353.717773,4326.794922,3943.205078,4400.384766,4401.153809,4399.743652,4209.615234,3743.461426,4544.615234,4633.717773,4444.871582,4459.230957,0,1,34,,,,0,4,0,4,4,4,1,0,0,4,4,2,4,4,4,0,,,,,,,,,,,,,,,,,,,,,,,,,,,,,,,,,,,,,,,,,,,,,,,,,,,,,,,,,,,
1783160657,1783160658,111,0,4207.179688,4303.717773,4353.077148,4323.077148,3932.179443,4400,4404.230957,4398.717773,4212.05127,3747.307617,4540,4634.871582,4443.077148,4455.897461,0,1,34,,,,0,4,0,4,4,4,1,0,0,4,4,2,4,4,4,0,,,,,,,,,,,,,,,,,,,,,,,,,,,,,,,,,,,,,,,,,,,,,,,,,,,,,,,,,,,
1783160657,1783160658,112,0,4211.282227,4305.641113,4356.666504,4325.256348,3926.410156,4401.666504,4405.897461,4399.871582,4213.461426,3751.666748,4543.589844,4637.820313,4444.230957,4450.897461,0,1,34,,,,0,4,0,4,4,4,1,0,0,4,4,2,4,4,4,0,,,,,,,,,,,,,,,,,,,,,,,,,,,,,,,,,,,,,,,,,,,,,,,,14,0,0.672348,0.255066,-0.652527,0.238953,0.967892,0.080576,-0.013674,-9.553098,39.029442,20.054306
1783160657,1783160658,113,0,4215.641113,4306.025879,4361.282227,4331.410156,3924.871826,4403.461426,4405.256348,4403.461426,4215.769043,3757.820557,4552.820313,4640.384766,4448.077148,4447.05127,0,1,34,,,,0,4,0,4,4,4,1,0,0,4,4,2,4,4,4,0,,,,,,,,,,,,,,,,,,,,,,,,,,,,,,,,,,,,,,,,,,,,,,,,,,,,,,,,,,,
1783160657,1783160658,114,0,4214.743652,4305.128418,4359.871582,4335,3921.153809,4404.102539,4403.077148,4407.692383,4219.102539,3763.974365,4559.871582,4639.102539,4450.128418,4444.743652,0,1,34,,,,0,4,0,4,4,4,1,0,0,4,4,2,4,4,4,0,,,,,,,,,,,,,,,,,,,,,,,,,,,,,,,,,,,,,,,,,,,,,,,,,,,,,,,,,,,
1783160657,1783160658,115,0,4205.512695,4303.846191,4346.538574,4331.153809,3910.641113,4403.205078,4400.641113,4409.871582,4222.692383,3767.820557,4559.230957,4632.179688,4446.410156,4441.922852,0,1,34,,,,0,4,0,4,4,4,1,0,0,4,4,2,4,4,4,0,,,,,,,,,,,,,,,,,,,,,,,,,,,,,,,,,,,,,,,,,,,,,,,,,,,,,,,,,,,
1783160657,1783160658,116,0,4191.922852,4303.205078,4322.307617,4322.05127,3897.435791,4402.179688,4399.358887,4408.589844,4226.282227,3770.512939,4552.05127,4621.666504,4438.077148,4438.205078,0,1,34,,,,0,4,0,4,4,4,1,0,0,4,4,2,4,4,4,0,,,,,,,,,,,,,,,,,,,,,,,,,,,,,,,,,,,,,,,,,,,,,,,,,,,,,,,,,,,
1783160657,1783160658,117,0,4182.436035,4303.461426,4295.512695,4315,3890.897461,4401.666504,4398.974121,4404.230957,4230,3775.641113,4545.512695,4613.205078,4430.897461,4435.256348,0,1,34,,,,0,4,0,4,4,4,1,0,0,4,4,2,4,4,4,0,,,,,,,,,,,,,,,,,,,,,,,,,,,,,,,,,,,,,,,,,,,,,,,,,,,,,,,,,,,
1783160657,1783160658,118,0,4183.077148,4303.974121,4276.282227,4315.256348,3897.179443,4401.153809,4399.358887,4399.230957,4234.871582,3786.410156,4545.512695,4612.179688,4430.128418,4435.128418,0,1,34,,,,0,4,0,4,4,4,1,0,0,4,4,2,4,4,4,0,,,,,,,,,,,,,,,,,,,,,,,,,,,,,,,,,,,,,,,,,,,,,,,,,,,,,,,,,,,
1783160657,1783160658,119,0,4192.179688,4304.358887,4270.256348,4321.153809,3913.076904,4399.743652,4400.128418,4395.897461,4240.897461,3801.538574,4551.794922,4619.102539,4436.153809,4436.666504,0,1,34,,,,0,4,0,4,4,4,1,0,0,4,4,2,4,4,4,0,,,,,,,,,,,,,,,,,,,,,,,,,,,,,,,,,,,,,,,,,,,,,,,,,,,,,,,,,,,
1783160657,1783160658,120,0,4202.05127,4304.615234,4276.025879,4326.410156,3927.05127,4398.077148,4401.153809,4394.871582,4246.794922,3816.025635,4558.333496,4629.871582,4443.974121,4437.307617,0,1,34,,,,0,4,0,4,4,4,1,0,0,4,4,2,4,4,4,0,,,,,,,,,,,,,,,,,,,,,,,,,,,,,,,,,,,,,,,,,,,,,,,,15,0,0.67199,0.257813,-0.651367,0.240173,0.971798,0.060554,0.01465,-9.347789,39.826496,20.13221
1783160657,1783160658,121,0,4206.282227,4304.871582,4286.410156,4324.871582,3928.718018,4397.05127,4401.538574,4394.871582,4249.871582,3823.718018,4559.230957,4637.820313,4446.922852,4434.871582,0,1,34,,,,0,4,0,4,4,4,1,0,0,4,4,2,4,4,4,0,,,,,,,,,,,,,,,,,,,,,,,,,,,,,,,,,,,,,,,,,,,,,,,,,,,,,,,,,,,
1783160657,1783160658,122,0,4203.589844,4305.256348,4293.974121,4316.410156,3917.307617,4397.05127,4400.769043,4394.743652,4247.94873,3822.435791,4553.333496,4638.589844,4441.922852,4429.615234,0,1,34,,,,0,4,0,4,4,4,1,0,0,4,4,2,4,4,4,0,,,,,,,,,,,,,,,,,,,,,,,,,,,,,,,,,,,,,,,,,,,,,,,,,,,,,,,,,,,
1783160657,1783160658,123,0,4198.589844,4305.384766,4296.282227,4306.410156,3902.94873,4397.05127,4398.846191,4394.102539,4242.179688,3816.410156,4545.769043,4632.820313,4431.282227,4424.358887,0,1,34,,,,0,4,0,4,4,4,1,0,0,4,4,2,4,4,4,0,,,,,,,,,,,,,,,,,,,,,,,,,,,,,,,,,,,,,,,,,,,,,,,,,,,,,,,,,,,
1783160657,1783160658,124,0,4197.436035,4305.128418,4296.025879,4302.05127,3898.461426,4396.410156,4397.436035,4393.589844,4237.307617,3812.94873,4543.077148,4625.769043,4422.179688,4422.692383,0,1,34,,,,0,4,0,4,4,4,1,0,0,4,4,2,4,4,4,0,,,,,,,,,,,,,,,,,,,,,,,,,,,,,,,,,,,,,,,,,,,,,,,,,,,,,,,,,,,
1783160657,1783160658,125,0,4202.94873,4304.615234,4297.692383,4307.05127,3909.230713,4394.615234,4397.820313,4393.974121,4237.563965,3816.666748,4547.820313,4623.717773,4420.384766,4426.410156,0,1,34,,,,0,4,0,4,4,4,1,0,0,4,4,2,4,4,4,0,,,,,,,,,,,,,,,,,,,,,,,,,,,,,,,,,,,,,,,,,,,,,,,,,,,,,,,,,,,
1783160657,1783160658,126,0,4212.307617,4304.102539,4302.307617,4318.589844,3928.718018,4392.05127,4400,4395.512695,4242.94873,3826.025635,4555.384766,4628.077148,4425.897461,4433.717773,0,1,34,,,,0,4,0,4,4,4,1,0,0,4,4,2,4,4,4,0,,,,,,,,,,,,,,,,,,,,,,,,,,,,,,,,,,,,,,,,,,,,,,,,,,,,,,,,,,,
1783160657,1783160658,127,0,4219.102539,4303.589844,4306.538574,4329.358887,3944.871826,4388.974121,4402.436035,4397.563965,4248.717773,3834.871826,4558.974121,4635,4432.94873,4439.743652,0,1,34,,,,0,4,0,4,4,4,1,0,0,4,4,2,4,4,4,0,,,,,,,,,,,,,,,,,,,,,,,,,,,,,,,,,,,,,,,,,,,,,,,,,,,,,,,,,,,
1783160657,1783160658,128,0,4218.589844,4303.205078,4306.794922,4333.077148,3950.128174,4385.512695,4403.077148,4399.358887,4250.128418,3837.820557,4555,4638.333496,4434.871582,4440.512695,2197,1,34,,,,0,4,0,4,4,4,1,0,0,4,4,2,4,4,4,0,,,,,,,,,,,,,,,,,,,,,,,,,,,,,,,,,,,,,,,,,,,,,,,,16,0,0.672073,0.259033,-0.650391,0.241272,0.978635,0.067391,0.012209,-9.046343,40.460514,20.335655
1783160657,1783160658,129,0,4211.025879,4303.077148,4303.077148,4328.333496,3946.666748,4382.436035,4401.025879,4400.256348,4245.897461,3834.615479,4547.05127,4634.743652,4429.102539,4435.384766,2393,1,34,,,,0,4,0,4,4,4,1,0,0,4,4,2,4,4,4,0,,,,,,,,,,,,,,,,,,,,,,,,,,,,,,,,,,,,,,,,,,,,,,,,,,,,,,,,,,,
1783160657,1783160658,130,0,4201.666504,4303.077148,4298.717773,4319.358887,3943.333252,4380.769043,4397.94873,4400.256348,4239.615234,3830.256348,4541.282227,4626.153809,4419.487305,4428.077148,2718,1,34,,,,0,4,0,4,4,4,1,0,0,4,4,2,4,4,4,0,,,,,,,,,,,,,,,,,,,,,,,,,,,,,,,,,,,,,,,,,,,,,,,,,,,,,,,,,,,
1783160657,1783160658,131,0,4196.794922,4303.205078,4297.820313,4312.692383,3947.307617,4380.897461,4396.025879,4399.487305,4236.025879,3830.769287,4541.922852,4617.436035,4412.179688,4423.205078,0,1,34,,,,0,4,0,4,4,4,1,0,0,4,4,2,4,4,4,0,,,,,,,,,,,,,,,,,,,,,,,,,,,,,,,,,,,,,,,,,,,,,,,,,,,,,,,,,,,
1783160657,1783160658,132,0,4199.358887,4303.205078,4302.436035,4312.563965,3959.743652,4382.05127,4396.666504,4397.692383,4237.692383,3838.333252,4547.94873,4612.820313,4411.025879,4423.077148,2516,1,34,,,,0,4,0,4,4,4,1,0,0,4,4,2,4,4,4,0,,,,,,,,,,,,,,,,,,,,,,,,,,,,,,,,,,,,,,,,,,,,,,,,,,,,,,,,,,,
1783160657,1783160658,133,0,4207.05127,4303.205078,4311.282227,4318.974121,3975.384521,4382.94873,4399.487305,4395.641113,4242.692383,3848.718018,4554.358887,4613.846191,4414.487305,4425.256348,283,1,34,,,,0,4,0,4,4,4,1,0,0,4,4,2,4,4,4,0,,,,,,,,,,,,,,,,,,,,,,,,,,,,,,,,,,,,,,,,,,,,,,,,,,,,,,,,,,,
1783160657,1783160658,134,0,4215.512695,4303.077148,4319.615234,4328.461426,3988.205078,4382.307617,4402.436035,4394.102539,4246.794922,3854.743652,4557.307617,4618.461426,4417.692383,4425.769043,0,1,34,,,,0,4,0,4,4,4,1,0,0,4,4,2,4,4,4,0,,,,,,,,,,,,,,,,,,,,,,,,,,,,,,,,,,,,,,,,,,,,,,,,,,,,,,,,,,,
1783160657,1783160658,135,0,4220.769043,4303.077148,4322.94873,4336.025879,3995.384521,4380.512695,4403.717773,4393.974121,4246.410156,3852.307617,4556.282227,4623.205078,4416.282227,4422.307617,0,1,34,,,,0,4,0,4,4,4,1,0,0,4,4,2,4,4,4,0,,,,,,,,,,,,,,,,,,,,,,,,,,,,,,,,,,,,,,,,,,,,,,,,,,,,,,,,,,,
1783160657,1783160658,136,0,4220.641113,4303.077148,4319.230957,4337.94873,3997.179443,4379.487305,4403.333496,4395,4241.410156,3843.205078,4553.589844,4625,4409.487305,4416.025879,1948,1,34,,,,0,4,0,4,4,4,1,0,0,4,4,2,4,4,4,0,,,,,,,,,,,,,,,,,,,,,,,,,,,,,,,,,,,,,,,,,,,,,,,,17,0,0.67194,0.260132,-0.649475,0.24292,1.010377,0.062019,0.000977,-8.891708,40.981129,20.55209
1783160657,1783160658,137,0,4215.384766,4303.205078,4310.897461,4333.461426,3996.410156,4381.410156,4402.563965,4395.769043,4234.743652,3834.615479,4550.897461,4623.077148,4400,4409.743652,2484,1,34,,,,0,4,0,4,4,4,1,0,0,4,4,2,4,4,4,0,,,,,,,,,,,,,,,,,,,,,,,,,,,,,,,,,,,,,,,,,,,,,,,,,,,,,,,,,,,
1783160657,1783160658,138,0,4207.436035,4303.205078,4303.589844,4324.743652,3996.025635,4387.179688,4402.692383,4395.384766,4230.769043,3833.205078,4548.717773,4619.358887,4392.307617,4405.384766,2600,1,34,,,,0,4,0,4,4,4,1,0,0,4,4,2,4,4,4,0,,,,,,,,,,,,,,,,,,,,,,,,,,,,,,,,,,,,,,,,,,,,,,,,,,,,,,,,,,,
1783160657,1783160658,139,0,4200.641113,4303.205078,4301.922852,4316.794922,3998.076904,4394.487305,4403.717773,4394.102539,4232.05127,3840.256348,4547.05127,4616.666504,4389.615234,4404.230957,2748,1,34,,,,0,4,0,4,4,4,1,0,0,4,4,2,4,4,4,0,,,,,,,,,,,,,,,,,,,,,,,,,,,,,,,,,,,,,,,,,,,,,,,,,,,,,,,,,,,
1783160657,1783160658,140,0,4197.94873,4303.205078,4305.384766,4313.974121,4002.94873,4399.871582,4403.717773,4392.94873,4237.05127,3851.538574,4546.410156,4616.922852,4391.794922,4405.641113,930,1,34,,,,0,4,0,4,4,4,1,0,0,4,4,2,4,4,4,0,,,,,,,,,,,,,,,,,,,,,,,,,,,,,,,,,,,,,,,,,,,,,,,,,,,,,,,,,,,
1783160657,1783160658,141,0,4200,4303.077148,4308.077148,4316.922852,4009.871826,4400.641113,4401.794922,4392.94873,4242.692383,3860.769287,4547.179688,4619.487305,4396.153809,4407.820313,2443,1,34,,,,0,4,0,4,4,4,1,0,0,4,4,2,4,4,4,0,,,,,,,,,,,,,,,,,,,,,,,,,,,,,,,,,,,,,,,,,,,,,,,,,,,,,,,,,,,
1783160657,1783160658,142,0,4204.743652,4303.077148,4305,4323.333496,4019.102539,4397.179688,4398.589844,4394.102539,4246.538574,3865.512939,4549.230957,4622.05127,4399.743652,4408.589844,2600,1,34,,,,0,4,0,4,4,4,1,0,0,4,4,2,4,4,4,0,,,,,,,,,,,,,,,,,,,,,,,,,,,,,,,,,,,,,,,,,,,,,,,,,,,,,,,,,,,
1783160657,1783160658,143,0,4209.230957,4303.077148,4298.717773,4329.358887,4030.769287,4393.077148,4396.410156,4395.384766,4248.461426,3867.94873,4551.538574,4622.307617,4401.282227,4408.333496,2748,1,34,,,,0,4,0,4,4,4,1,0,0,4,4,2,4,4,4,0,,,,,,,,,,,,,,,,,,,,,,,,,,,,,,,,,,,,,,,,,,,,,,,,,,,,,,,,,,,
1783160657,1783160658,144,0,4211.538574,4303.205078,4300,4331.666504,4043.846191,4391.666504,4397.05127,4395.256348,4249.230957,3871.281982,4552.820313,4619.871582,4400.641113,4409.230957,930,1,34,,,,0,4,0,4,4,4,1,0,0,4,4,2,4,4,4,0,,,,,,,,,,,,,,,,,,,,,,,,,,,,,,,,,,,,,,,,,,,,,,,,18,0,0.671343,0.261292,-0.648315,0.246399,1.026981,0.050299,0.02637,-8.719204,41.416351,20.74688
1783160657,1783160658,145,0,4211.282227,4303.333496,4320.256348,4328.589844,4054.871826,4392.820313,4399.102539,4393.461426,4249.487305,3876.538574,4551.666504,4615.512695,4398.205078,4411.794922,2443,1,34,,,,0,4,0,4,4,4,1,0,0,4,4,2,4,4,4,0,,,,,,,,,,,,,,,,,,,,,,,,,,,,,,,,,,,,,,,,,,,,,,,,,,,,,,,,,,,
1783160657,1783160658,146,0,4208.846191,4303.205078,4363.333496,4320.512695,4059.743652,4394.102539,4399.743652,4390.641113,4249.102539,3881.666748,4547.307617,4609.871582,4393.333496,4413.333496,2600,1,34,,,,0,4,0,4,4,4,1,0,0,4,4,2,4,4,4,0,,,,,,,,,,,,,,,,,,,,,,,,,,,,,,,,,,,,,,,,,,,,,,,,,,,,,,,,,,,
1783160657,1783160658,147,0,4204.743652,4302.94873,4420,4310.512695,4057.435791,4392.307617,4397.307617,4388.205078,4248.077148,3884.230713,4541.025879,4603.717773,4385.897461,4409.615234,2748,1,34,,,,0,4,0,4,4,4,1,0,0,4,4,2,4,4,4,0,,,,,,,,,,,,,,,,,,,,,,,,,,,,,,,,,,,,,,,,,,,,,,,,,,,,,,,,,,,
1783160657,1783160658,148,0,4200,4302.820313,4473.846191,4303.717773,4051.281982,4387.563965,4393.333496,4387.563965,4247.307617,3884.358887,4536.282227,4598.077148,4378.077148,4400.897461,930,1,34,,,,0,4,0,4,4,4,1,0,0,4,4,2,4,4,4,0,,,,,,,,,,,,,,,,,,,,,,,,,,,,,,,,,,,,,,,,,,,,,,,,,,,,,,,,,,,
1783160657,1783160658,149,0,4197.05127,4303.077148,4512.05127,4304.230957,4048.589844,4382.436035,4391.153809,4388.846191,4248.974121,3884.743652,4536.410156,4595.128418,4373.589844,4392.820313,2443,1,34,,,,0,4,0,4,4,4,1,0,0,4,4,2,4,4,4,0,,,,,,,,,,,,,,,,,,,,,,,,,,,,,,,,,,,,,,,,,,,,,,,,,,,,,,,,,,,
1783160657,1783160658,150,0,4198.461426,4303.717773,4532.436035,4312.94873,4055.128174,4380,4392.563965,4391.410156,4253.717773,3888.076904,4541.666504,4595.897461,4375.128418,4391.794922,2600,1,34,,,,0,4,0,4,4,4,1,0,0,4,4,2,4,4,4,0,,,,,,,,,,,,,,,,,,,,,,,,,,,,,,,,,,,,,,,,,,,,,,,,,,,,,,,,,,,
1783160657,1783160658,151,0,4203.589844,4304.487305,4542.05127,4325.128418,4070.384521,4381.153809,4396.922852,4393.974121,4259.615234,3894.358887,4547.820313,4598.846191,4380.897461,4397.94873,2748,1,34,,,,0,4,0,4,4,4,1,0,0,4,4,2,4,4,4,0,,,,,,,,,,,,,,,,,,,,,,,,,,,,,,,,,,,,,,,,,,,,,,,,,,,,,,,,,,,
1783160658,1783160658,152,0,4208.333496,4305,4550,4332.692383,4086.666748,4383.846191,4402.307617,4395,4262.820313,3900.384521,4549.487305,4600.769043,4385,4404.487305,930,1,34,,,,0,4,0,4,4,4,1,0,0,4,4,2,4,4,4,0,,,,,,,,,,,,,,,,,,,,,,,,,,,,,,,,,,,,,,,,,,,,,,,,19,0,0.670673,0.26178,-0.647949,0.248657,0.997192,0.043462,0.019045,-8.71395,41.94138,20.622192
1783160658,1783160658,153,0,4208.846191,4305,4560.256348,4331.153809,4095.384521,4385.769043,4406.025879,4394.230957,4260.897461,3902.435791,4544.487305,4599.102539,4382.94873,4404.743652,2443,1,34,,,,0,4,0,4,4,4,1,0,0,4,4,2,4,4,4,0,,,,,,,,,,,,,,,,,,,,,,,,,,,,,,,,,,,,,,,,,,,,,,,,,,,,,,,,,,,
1783160658,1783160658,154,0,4205.769043,4304.358887,4571.410156,4323.461426,4095.897461,4385.384766,4407.179688,4392.563965,4255.769043,3900.128174,4536.410156,4594.615234,4376.025879,4399.358887,2600,1,34,,,,0,4,0,4,4,4,1,0,0,4,4,2,4,4,4,0,,,,,,,,,,,,,,,,,,,,,,,,,,,,,,,,,,,,,,,,,,,,,,,,,,,,,,,,,,,
1783160658,1783160658,155,0,4204.358887,4303.717773,4580,4317.94873,4095.641113,4382.692383,4406.025879,4391.538574,4251.794922,3897.307617,4531.153809,4591.025879,4370.128418,4395.256348,2748,1,34,,,,0,4,0,4,4,4,1,0,0,4,4,2,4,4,4,0,,,,,,,,,,,,,,,,,,,,,,,,,,,,,,,,,,,,,,,,,,,,,,,,,,,,,,,,,,,
1783160658,1783160658,156,0,4208.205078,4303.205078,4582.820313,4320.512695,4103.333496,4379.102539,4404.102539,4392.179688,4252.05127,3899.230713,4531.666504,4591.153809,4369.230957,4396.794922,930,1,34,,,,0,4,0,4,4,4,1,0,0,4,4,2,4,4,4,0,,,,,,,,,,,,,,,,,,,,,,,,,,,,,,,,,,,,,,,,,,,,,,,,,,,,,,,,,,,
1783160658,1783160658,157,0,4214.615234,4303.205078,4578.589844,4328.717773,4119.743652,4376.025879,4403.205078,4393.974121,4254.487305,3906.410156,4535.641113,4593.333496,4370.256348,4400.512695,2443,1,34,,,,0,4,0,4,4,4,1,0,0,4,4,2,4,4,4,0,,,,,,,,,,,,,,,,,,,,,,,,,,,,,,,,,,,,,,,,,,,,,,,,,,,,,,,,,,,
1783160658,1783160658,158,0,4215.897461,4303.333496,4568.333496,4333.589844,4136.666504,4373.974121,4404.230957,4395.256348,4254.102539,3913.461426,4537.563965,4592.179688,4366.153809,4397.94873,2600,1,34,,,,0,4,0,4,4,4,1,0,0,4,4,2,4,4,4,0,,,,,,,,,,,,,,,,,,,,,,,,,,,,,,,,,,,,,,,,,,,,,,,,,,,,,,,,,,,
1783160658,1783160658,159,0,4206.410156,4303.589844,4553.974121,4327.436035,4144.102539,4373.077148,4407.05127,4394.871582,4247.563965,3914.358887,4534.615234,4584.102539,4353.205078,4385.128418,2748,1,34,,,,0,4,0,4,4,4,1,0,0,4,4,2,4,4,4,0,,,,,,,,,,,,,,,,,,,,,,,,,,,,,,,,,,,,,,,,,,,,,,,,,,,,,,,,,,,
1783160658,1783160658,160,0,4188.589844,4303.589844,4538.461426,4311.153809,4139.487305,4373.846191,4411.025879,4393.461426,4237.820313,3908.333252,4528.717773,4571.538574,4336.282227,4367.436035,930,1,34,,,,0,4,0,4,4,4,1,0,0,4,4,2,4,4,4,0,,,,,,,,,,,,,,,,,,,,,,,,,,,,,,,,,,,,,,,,,,,,,,,,20,0,0.669569,0.262878,-0.647705,0.251099,0.996704,0.051276,0.01758,-8.742556,42.297245,20.593306
1783160658,1783160658,161,0,4171.794922,4303.461426,4525.384766,4293.589844,4129.102539,4376.410156,4415.512695,4392.820313,4232.179688,3901.794922,4524.743652,4562.563965,4326.538574,4355.384766,2443,1,34,,,,0,4,0,4,4,4,1,0,0,4,4,2,4,4,4,0,,,,,,,,,,,,,,,,,,,,,,,,,,,,,,,,,,,,,,,,,,,,,,,,,,,,,,,,,,,
1783160658,1783160658,162,0,4165.641113,4303.333496,4518.077148,4284.871582,4123.205078,4380.384766,4420.128418,4393.846191,4236.538574,3902.820557,4526.666504,4564.615234,4332.307617,4356.794922,2600,1,34,,,,0,4,0,4,4,4,1,0,0,4,4,2,4,4,4,0,,,,,,,,,,,,,,,,,,,,,,,,,,,,,,,,,,,,,,,,,,,,,,,,,,,,,,,,,,,
1783160658,1783160658,163,0,4172.05127,4303.333496,4517.692383,4288.205078,4127.307617,4383.846191,4423.974121,4396.282227,4249.487305,3914.102539,4533.717773,4578.333496,4353.333496,4370.128418,2748,1,34,,,,0,4,0,4,4,4,1,0,0,4,4,2,4,4,4,0,,,,,,,,,,,,,,,,,,,,,,,,,,,,,,,,,,,,,,,,,,,,,,,,,,,,,,,,,,,
1783160658,1783160658,164,0,4184.487305,4303.461426,4521.153809,4298.333496,4138.846191,4385.128418,4425.897461,4398.333496,4263.205078,3931.025635,4541.410156,4596.025879,4380.512695,4385.897461,930,1,34,,,,0,4,0,4,4,4,1,0,0,4,4,2,4,4,4,0,,,,,,,,,,,,,,,,,,,,,,,,,,,,,,,,,,,,,,,,,,,,,,,,,,,,,,,,,,,
1783160658,1783160658,165,0,4192.179688,4303.461426,4522.436035,4305.512695,4150.384766,4383.717773,4425.512695,4398.846191,4269.487305,3945.384521,4545.128418,4607.436035,4402.692383,4394.871582,2443,1,34,,,,0,4,0,4,4,4,1,0,0,4,4,2,4,4,4,0,,,,,,,,,,,,,,,,,,,,,,,,,,,,,,,,,,,,,,,,,,,,,,,,,,,,,,,,,,,
1783160658,1783160658,166,0,4189.102539,4303.461426,4516.666504,4303.077148,4155.512695,4380.897461,4423.974121,4397.692383,4265.897461,3952.05127,4543.846191,4607.179688,4414.871582,4394.102539,2600,1,34,,,,0,4,0,4,4,4,1,0,0,4,4,2,4,4,4,0,,,,,,,,,,,,,,,,,,,,,,,,,,,,,,,,,,,,,,,,,,,,,,,,,,,,,,,,,,,
1783160658,1783160658,167,0,4177.307617,4303.461426,4504.487305,4291.666504,4153.205078,4378.846191,4423.461426,4395.897461,4257.307617,3952.179443,4541.025879,4598.333496,4420.128418,4389.615234,2748,1,34,,,,0,4,0,4,4,4,1,0,0,4,4,2,4,4,4,0,,,,,,,,,,,,,,,,,,,,,,,,,,,,,,,,,,,,,,,,,,,,,,,,,,,,,,,,,,,
1783160658,1783160658,168,0,4166.153809,4303.461426,4492.179688,4278.589844,4148.077148,4379.743652,4425.384766,4394.358887,4252.563965,3952.307617,4540.512695,4589.743652,4426.410156,4389.871582,930,1,34,,,,0,4,0,4,4,4,1,0,0,4,4,2,4,4,4,0,,,,,,,,,,,,,,,,,,,,,,,,,,,,,,,,,,,,,,,,,,,,,,,,21,0,0.667548,0.265076,-0.647705,0.25415,0.989867,0.034672,-0.000977,-8.651633,42.650852,20.71731
1783160658,1783160658,169,0,4164.358887,4303.589844,4487.05127,4272.563965,4146.410156,4383.846191,4428.717773,4393.589844,4258.077148,3959.102539,4544.358887,4589.487305,4440,4398.974121,2443,1,34,,,,0,4,0,4,4,4,1,0,0,4,4,2,4,4,4,0,,,,,,,,,,,,,,,,,,,,,,,,,,,,,,,,,,,,,,,,,,,,,,,,,,,,,,,,,,,
1783160658,1783160658,170,0,4172.820313,4303.846191,4490.897461,4277.692383,4152.05127,4388.717773,4430.897461,4393.717773,4272.436035,3974.230713,4550.769043,4598.974121,4459.615234,4412.563965,2600,1,34,,,,0,4,0,4,4,4,1,0,0,4,4,2,4,4,4,0,,,,,,,,,,,,,,,,,,,,,,,,,,,,,,,,,,,,,,,,,,,,,,,,,,,,,,,,,,,
1783160658,1783160658,171,0,4183.461426,4303.717773,4497.563965,4290.128418,4162.563965,4390.384766,4430.384766,4394.487305,4287.820313,3993.333252,4555.897461,4612.436035,4477.820313,4421.666504,2748,1,34,,,,0,4,0,4,4,4,1,0,0,4,4,2,4,4,4,0,,,,,,,,,,,,,,,,,,,,,,,,,,,,,,,,,,,,,,,,,,,,,,,,,,,,,,,,,,,
1783160658,1783160658,172,0,4186.666504,4303.461426,4498.461426,4301.025879,4171.282227,4386.794922,4427.436035,4395.897461,4295.769043,4009.487061,4557.307617,4621.282227,4486.410156,4420.769043,930,1,34,,,,0,4,0,4,4,4,1,0,0,4,4,2,4,4,4,0,,,,,,,,,,,,,,,,,,,,,,,,,,,,,,,,,,,,,,,,,,,,,,,,,,,,,,,,,,,
1783160658,1783160658,173,0,4178.846191,4303.333496,4490.256348,4302.94873,4171.025879,4379.743652,4423.846191,4397.563965,4293.461426,4018.333252,4555,4620.897461,4483.461426,4411.410156,2443,1,34,,,,0,4,0,4,4,4,1,0,0,4,4,2,4,4,4,0,,,,,,,,,,,,,,,,,,,,,,,,,,,,,,,,,,,,,,,,,,,,,,,,,,,,,,,,,,,
1783160658,1783160658,174,0,4164.358887,4303.461426,4477.820313,4294.487305,4159.487305,4373.333496,4421.410156,4398.846191,4284.871582,4020.128174,4550.897461,4612.820313,4473.846191,4400,2600,1,34,,,,0,4,0,4,4,4,1,0,0,4,4,2,4,4,4,0,,,,,,,,,,,,,,,,,,,,,,,,,,,,,,,,,,,,,,,,,,,,,,,,,,,,,,,,,,,
1783160658,1783160658,175,0,4151.025879,4303.846191,4469.615234,4279.871582,4140.128418,4371.153809,4420.512695,4399.358887,4276.282227,4018.846191,4546.794922,4602.179688,4464.487305,4391.410156,2748,1,34,,,,0,4,0,4,4,4,1,0,0,4,4,2,4,4,4,0,,,,,,,,,,,,,,,,,,,,,,,,,,,,,,,,,,,,,,,,,,,,,,,,,,,,,,,,,,,
1783160658,1783160658,176,0,4144.358887,4304.102539,4472.179688,4265.641113,4120.897461,4373.717773,4420.641113,4398.846191,4272.307617,4018.846191,4543.589844,4593.717773,4459.230957,4386.538574,930,1,34,,,,0,4,0,4,4,4,1,0,0,4,4,2,4,4,4,0,,,,,,,,,,,,,,,,,,,,,,,,,,,,,,,,,,,,,,,,,,,,,,,,22,0,0.665961,0.267334,-0.6474,0.256714,0.981565,0.036626,0.003418,-8.653136,43.2691,20.828911
1783160658,1783160658,177,0,4145.512695,4303.717773,4485.256348,4257.563965,4110.128418,4377.94873,4420.641113,4397.307617,4272.692383,4021.666748,4541.794922,4589.615234,4458.589844,4384.358887,2443,1,34,,,,0,4,0,4,4,4,1,0,0,4,4,2,4,4,4,0,,,,,,,,,,,,,,,,,,,,,,,,,,,,,,,,,,,,,,,,,,,,,,,,,,,,,,,,,,,
1783160658,1783160658,178,0,4151.794922,4302.436035,4502.94873,4257.436035,4110.384766,4380.512695,4420.256348,4395.641113,4274.615234,4026.025635,4542.05127,4589.102539,4460,4384.230957,2600,1,34,,,,0,4,0,4,4,4,1,0,0,4,4,2,4,4,4,0,,,,,,,,,,,,,,,,,,,,,,,,,,,,,,,,,,,,,,,,,,,,,,,,,,,,,,,,,,,
1783160658,1783160658,179,0,4157.820313,4300.641113,4515.769043,4262.179688,4117.436035,4379.487305,4419.615234,4395,4275.256348,4029.487061,4544.743652,4590.384766,4460.641113,4385.384766,2748,1,34,,,,0,4,0,4,4,4,1,0,0,4,4,2,4,4,4,0,,,,,,,,,,,,,,,,,,,,,,,,,,,,,,,,,,,,,,,,,,,,,,,,,,,,,,,,,,,
1783160658,1783160658,180,0,4159.358887,4298.974121,4516.538574,4265.897461,4122.692383,4376.410156,4419.487305,4395.897461,4273.974121,4030.769287,4548.974121,4591.410156,4458.717773,4385.641113,930,1,34,,,,0,4,0,4,4,4,1,0,0,4,4,2,4,4,4,0,,,,,,,,,,,,,,,,,,,,,,,,,,,,,,,,,,,,,,,,,,,,,,,,,,,,,,,,,,,
1783160658,1783160658,181,0,4155.256348,4298.077148,4505.384766,4265,4121.025879,4374.487305,4420.512695,4397.307617,4273.333496,4030.769287,4552.436035,4590.641113,4454.871582,4383.333496,2443,1,34,,,,0,4,0,4,4,4,1,0,0,4,4,2,4,4,4,0,,,,,,,,,,,,,,,,,,,,,,,,,,,,,,,,,,,,,,,,,,,,,,,,,,,,,,,,,,,
1783160658,1783160658,182,0,4149.102539,4297.94873,4490,4260.641113,4113.846191,4375.769043,4421.922852,4397.563965,4275.641113,4031.281982,4553.333496,4588.077148,4450.512695,4379.230957,2600,1,34,,,,0,4,0,4,4,4,1,0,0,4,4,2,4,4,4,0,,,,,,,,,,,,,,,,,,,,,,,,,,,,,,,,,,,,,,,,,,,,,,,,,,,,,,,,,,,
1783160658,1783160658,183,0,4145.512695,4298.333496,4480.256348,4257.307617,4107.692383,4380.128418,4422.692383,4395.384766,4281.794922,4034.358887,4550.512695,4586.025879,4447.692383,4375.512695,2748,1,34,,,,0,4,0,4,4,4,1,0,0,4,4,2,4,4,4,0,,,,,,,,,,,,,,,,,,,,,,,,,,,,,,,,,,,,,,,,,,,,,,,,,,,,,,,,,,,
1783160658,1783160658,184,0,4145.897461,4298.589844,4480.384766,4258.077148,4107.179688,4384.358887,4422.05127,4391.666504,4289.871582,4040.897461,4545.128418,4586.282227,4446.025879,4373.589844,930,1,34,,,,0,4,0,4,4,4,1,0,0,4,4,2,4,4,4,0,,,,,,,,,,,,,,,,,,,,,,,,,,,,,,,,,,,,,,,,,,,,,,,,23,0,0.663439,0.27179,-0.646301,0.261292,0.989867,0.041509,-0.012209,-8.50449,43.758858,20.796021
1783160658,1783160658,185,0,4147.307617,4298.589844,4486.794922,4261.282227,4110.128418,4385.256348,4420.641113,4388.846191,4295.512695,4048.846191,4539.615234,4588.333496,4443.717773,4371.153809,2443,1,34,,,,0,4,0,4,4,4,1,0,0,4,4,2,4,4,4,0,,,,,,,,,,,,,,,,,,,,,,,,,,,,,,,,,,,,,,,,,,,,,,,,,,,,,,,,,,,
1783160658,1783160658,186,0,4145.769043,4298.077148,4491.153809,4262.179688,4110.384766,4382.179688,4420.256348,4388.717773,4295.384766,4053.846191,4536.410156,4588.974121,4439.230957,4365,2600,1,34,,,,0,4,0,4,4,4,1,0,0,4,4,2,4,4,4,0,,,,,,,,,,,,,,,,,,,,,,,,,,,,,,,,,,,,,,,,,,,,,,,,,,,,,,,,,,,
1783160658,1783160658,187,0,4141.410156,4297.820313,4488.717773,4258.846191,4104.615234,4377.692383,4421.410156,4390.897461,4289.487305,4052.692383,4536.538574,4585,4433.077148,4354.615234,2748,1,34,,,,0,4,0,4,4,4,1,0,0,4,4,2,4,4,4,0,,,,,,,,,,,,,,,,,,,,,,,,,,,,,,,,,,,,,,,,,,,,,,,,,,,,,,,,,,,
1783160658,1783160658,188,0,4137.820313,4297.692383,4480.769043,4254.358887,4095.641113,4375,4422.563965,4393.589844,4282.05127,4046.923096,4539.102539,4576.282227,4427.692383,4343.846191,930,1,34,,,,0,4,0,4,4,4,1,0,0,4,4,2,4,4,4,0,,,,,,,,,,,,,,,,,,,,,,,,,,,,,,,,,,,,,,,,,,,,,,,,,,,,,,,,,,,
1783160658,1783160658,189,0,4138.974121,4297.94873,4472.820313,4253.974121,4089.487061,4374.615234,4421.666504,4394.871582,4278.077148,4042.179443,4541.282227,4566.794922,4425.256348,4337.307617,2443,1,34,,,,0,4,0,4,4,4,1,0,0,4,4,2,4,4,4,0,,,,,,,,,,,,,,,,,,,,,,,,,,,,,,,,,,,,,,,,,,,,,,,,,,,,,,,,,,,
1783160658,1783160658,190,0,4145.641113,4298.205078,4470,4259.487305,4089.487061,4375,4418.589844,4394.487305,4279.743652,4042.94873,4541.153809,4560.897461,4425.769043,4337.692383,2600,1,34,,,,0,4,0,4,4,4,1,0,0,4,4,2,4,4,4,0,,,,,,,,,,,,,,,,,,,,,,,,,,,,,,,,,,,,,,,,,,,,,,,,,,,,,,,,,,,
1783160658,1783160658,191,0,4154.615234,4298.205078,4475.384766,4268.205078,4093.974365,4374.102539,4415.641113,4393.205078,4285,4048.974365,4538.461426,4561.025879,4426.794922,4343.205078,2748,1,34,,,,0,4,0,4,4,4,1,0,0,4,4,2,4,4,4,0,,,,,,,,,,,,,,,,,,,,,,,,,,,,,,,,,,,,,,,,,,,,,,,,,,,,,,,,,,,
1783160658,1783160658,192,0,4161.922852,4298.205078,4487.94873,4274.615234,4097.436035,4371.794922,4415.384766,4392.436035,4288.846191,4055,4535,4565.641113,4425.769043,4349.487305,930,1,34,,,,0,4,0,4,4,4,1,0,0,4,4,2,4,4,4,0,,,,,,,,,,,,,,,,,,,,,,,,,,,,,,,,,,,,,,,,,,,,,,,,24,0,0.661759,0.275024,-0.645264,0.264709,0.975217,0.02344,-0.006348,-8.487374,44.232971,21.016418
1783160658,1783160658,193,0,4163.589844,4298.077148,4503.205078,4274.743652,4095,4369.102539,4417.94873,4392.307617,4287.179688,4055,4532.563965,4569.615234,4420.897461,4351.025879,2443,1,34,,,,0,4,0,4,4,4,1,0,0,4,4,2,4,4,4,0,,,,,,,,,,,,,,,,,,,,,,,,,,,,,,,,,,,,,,,,,,,,,,,,,,,,,,,,,,,
1783160658,1783160658,194,0,4158.461426,4298.077148,4515.384766,4268.846191,4085.769287,4366.922852,4421.410156,4392.436035,4280.256348,4047.435791,4531.282227,4568.077148,4412.692383,4345.256348,2600,1,34,,,,0,4,0,4,4,4,1,0,0,4,4,2,4,4,4,0,,,,,,,,,,,,,,,,,,,,,,,,,,,,,,,,,,,,,,,,,,,,,,,,,,,,,,,,,,,
1783160658,1783160658,195,0,4149.102539,4298.205078,4520.897461,4260.897461,4074.102539,4366.282227,4423.077148,4391.922852,4272.820313,4037.307617,4530.256348,4560.897461,4403.717773,4334.743652,2748,1,34,,,,0,4,0,4,4,4,1,0,0,4,4,2,4,4,4,0,,,,,,,,,,,,,,,,,,,,,,,,,,,,,,,,,,,,,,,,,,,,,,,,,,,,,,,,,,,
1783160658,1783160658,196,0,4141.794922,4298.205078,4521.538574,4256.538574,4066.666748,4367.05127,4422.436035,4390.897461,4270.897461,4033.333252,4530,4553.974121,4398.589844,4326.410156,930,1,34,,,,0,4,0,4,4,4,1,0,0,4,4,2,4,4,4,0,,,,,,,,,,,,,,,,,,,,,,,,,,,,,,,,,,,,,,,,,,,,,,,,,,,,,,,,,,,
1783160658,1783160658,197,0,4141.794922,4298.205078,4521.666504,4258.846191,4066.923096,4368.077148,4420.641113,4389.871582,4276.153809,4041.153809,4532.05127,4554.487305,4400.641113,4326.538574,2443,1,34,,,,0,4,0,4,4,4,1,0,0,4,4,2,4,4,4,0,,,,,,,,,,,,,,,,,,,,,,,,,,,,,,,,,,,,,,,,,,,,,,,,,,,,,,,,,,,
1783160658,1783160658,198,0,4149.615234,4298.205078,4524.102539,4266.666504,4072.692383,4367.94873,4419.358887,4389.102539,4284.743652,4057.05127,4536.282227,4563.717773,4408.589844,4335.512695,2600,1,34,,,,0,4,0,4,4,4,1,0,0,4,4,2,4,4,4,0,,,,,,,,,,,,,,,,,,,,,,,,,,,,,,,,,,,,,,,,,,,,,,,,,,,,,,,,,,,
1783160658,1783160658,199,0,4160.128418,4298.205078,4528.333496,4275.128418,4077.564209,4365.641113,4418.846191,4388.333496,4289.230957,4070.512939,4540.897461,4574.871582,4416.666504,4346.025879,2748,1,34,,,,0,4,0,4,4,4,1,0,0,4,4,2,4,4,4,0,,,,,,,,,,,,,,,,,,,,,,,,,,,,,,,,,,,,,,,,,,,,,,,,,,,,,,,,,,,
1783160658,1783160658,200,0,4166.666504,4298.205078,4530.897461,4279.871582,4075.897461,4362.05127,4417.94873,4386.410156,4285.512695,4072.307617,4542.179688,4578.461426,4418.589844,4349.230957,930,1,34,,,,0,4,0,4,4,4,1,0,0,4,4,2,4,4,4,0,,,,,,,,,,,,,,,,,,,,,,,,,,,,,,,,,,,,,,,,,,,,,,,,25,0,0.660103,0.278625,-0.643799,0.268616,0.979123,0.021487,0.001953,-8.42197,44.559673,21.148109
1783160658,1783160658,201,0,4164.871582,4298.205078,4528.461426,4278.717773,4066.794922,4358.717773,4414.871582,4383.333496,4275.256348,4061.666748,4538.846191,4570.256348,4412.179688,4341.922852,2443,1,34,,,,0,4,0,4,4,4,1,0,0,4,4,2,4,4,4,0,,,,,,,,,,,,,,,,,,,,,,,,,,,,,,,,,,,,,,,,,,,,,,,,,,,,,,,,,,,
1783160658,1783160658,202,0,4155.512695,4298.205078,4520.384766,4272.307617,4052.307617,4356.794922,4409.230957,4379.871582,4264.615234,4046.666748,4532.307617,4554.871582,4400.897461,4328.461426,2600,1,34,,,,0,4,0,4,4,4,1,0,0,4,4,2,4,4,4,0,1,0,1,0,1,1,0,1,0,0,1,0,2,1,1,0,,,,,,,,,,,,,,,,,,,,,,,,,,,,,,,,,,,,,,,,,,,
1783160658,1783160658,203,0,4142.436035,4298.205078,4508.205078,4262.692383,4036.153809,4355.641113,4402.436035,4378.461426,4259.487305,4036.666748,4525.897461,4542.563965,4391.153809,4316.794922,2748,1,34,,,,0,4,0,4,4,4,1,0,0,4,4,2,4,4,4,0,,,,,,,,,,,,,,,,,,,,,,,,,,,,,,,,,,,,,,,,,,,,,,,,,,,,,,,,,,,
1783160658,1783160658,204,0,4131.666504,4298.205078,4495.384766,4252.692383,4022.435791,4354.487305,4397.436035,4380.384766,4260.128418,4035.256348,4522.05127,4540.256348,4387.307617,4311.538574,930,1,34,,,,0,4,0,4,4,4,1,0,0,4,4,2,4,4,4,0,,,,,,,,,,,,,,,,,,,,,,,,,,,,,,,,,,,,,,,,,,,,,,,,,,,,,,,,,,,
1783160658,1783160658,205,0,4127.563965,4298.333496,4486.410156,4245.769043,4014.487061,4352.820313,4396.282227,4385,4262.05127,4038.076904,4521.282227,4547.692383,4389.358887,4312.307617,2443,1,34,,,,0,4,0,4,4,4,1,0,0,4,4,2,4,4,4,0,,,,,,,,,,,,,,,,,,,,,,,,,,,,,,,,,,,,,,,,,,,,,,,,,,,,,,,,,,,
1783160658,1783160658,206,0,4131.410156,4298.333496,4485.512695,4244.230957,4012.564209,4350.512695,4398.205078,4389.871582,4260.256348,4037.820557,4522.820313,4558.205078,4394.230957,4315.641113,2600,1,34,,,,0,4,0,4,4,4,1,0,0,4,4,2,4,4,4,0,,,,,,,,,,,,,,,,,,,,,,,,,,,,,,,,,,,,,,,,,,,,,,,,,,,,,,,,,,,
1783160658,1783160658,207,0,4140.384766,4298.333496,4494.102539,4247.820313,4013.718018,4347.94873,4400.256348,4392.307617,4253.333496,4030.512939,4525.641113,4565,4398.717773,4318.205078,2748,1,34,,,,0,4,0,4,4,4,1,0,0,4,4,2,4,4,4,0,,,,,,,,,,,,,,,,,,,,,,,,,,,,,,,,,,,,,,,,,,,,,,,,,,,,,,,,,,,
1783160658,1783160658,208,0,4149.615234,4298.077148,4509.230957,4253.589844,4013.461426,4345.897461,4400.384766,4391.282227,4245.128418,4019.871826,4528.974121,4566.538574,4401.666504,4318.846191,930,1,34,,,,0,4,0,4,4,4,1,0,0,4,4,2,4,4,4,0,,,,,,,,,,,,,,,,,,,,,,,,,,,,,,,,,,,,,,,,,,,,,,,,26,0,0.657937,0.284668,-0.640869,0.274536,0.98889,0.040044,-0.010743,-8.179773,44.853706,21.149965
1783160658,1783160658,209,0,4154.871582,4297.94873,4525.128418,4257.436035,4008.974365,4345.512695,4398.077148,4388.461426,4241.025879,4013.333252,4532.436035,4566.025879,4404.102539,4317.436035,2443,1,34,,,,0,4,0,4,4,4,1,0,0,4,4,2,4,4,4,0,,,,,,,,,,,,,,,,,,,,,,,,,,,,,,,,,,,,,,,,,,,,,,,,,,,,,,,,,,,
1783160658,1783160658,210,0,4155.384766,4298.077148,4536.410156,4257.307617,4001.410156,4346.538574,4395,4385.769043,4242.94873,4013.974365,4535.256348,4568.461426,4406.922852,4313.717773,2600,1,34,,,,0,4,0,4,4,4,1,0,0,4,4,2,4,4,4,0,,,,,,,,,,,,,,,,,,,,,,,,,,,,,,,,,,,,,,,,,,,,,,,,,,,,,,,,,,,
1783160658,1783160658,211,0,4152.05127,4298.461426,4541.153809,4253.846191,3994.615479,4347.563965,4392.179688,4384.871582,4246.666504,4016.666748,4536.410156,4573.589844,4408.205078,4306.410156,2748,1,34,,,,0,4,0,4,4,4,1,0,0,4,4,2,4,4,4,0,,,,,,,,,,,,,,,,,,,,,,,,,,,,,,,,,,,,,,,,,,,,,,,,,,,,,,,,,,,
1783160658,1783160658,212,0,4146.025879,4298.461426,4540.641113,4249.615234,3991.281982,4346.666504,4390,4385.256348,4245.512695,4012.564209,4534.615234,4575.897461,4404.615234,4295,930,1,34,,,,0,4,0,4,4,4,1,0,0,4,4,2,4,4,4,0,,,,,,,,,,,,,,,,,,,,,,,,,,,,,,,,,,,,,,,,,,,,,,,,,,,,,,,,,,,
1783160658,1783160658,213,0,4138.974121,4297.94873,4538.846191,4246.282227,3992.307617,4343.461426,4388.974121,4385.641113,4236.153809,3997.179443,4529.615234,4569.358887,4394.871582,4281.282227,2443,1,34,,,,0,4,0,4,4,4,1,0,0,4,4,2,4,4,4,0,,,,,,,,,,,,,,,,,,,,,,,,,,,,,,,,,,,,,,,,,,,,,,,,,,,,,,,,,,,
1783160658,1783160658,214,0,4133.846191,4296.794922,4540.512695,4245,3996.794922,4340.128418,4389.487305,4384.871582,4222.307617,3975.256348,4523.205078,4555.128418,4383.077148,4269.615234,2600,1,34,,,,0,4,0,4,4,4,1,0,0,4,4,2,4,4,4,0,,,,,,,,,,,,,,,,,,,,,,,,,,,,,,,,,,,,,,,,,,,,,,,,,,,,,,,,,,,
1783160658,1783160658,215,0,4133.846191,4295.641113,4547.94873,4246.153809,4003.718018,4339.358887,4391.666504,4383.077148,4211.538574,3957.564209,4519.358887,4541.922852,4376.282227,4265.128418,2748,1,34,,,,0,4,0,4,4,4,1,0,0,4,4,2,4,4,4,0,,,,,,,,,,,,,,,,,,,,,,,,,,,,,,,,,,,,,,,,,,,,,,,,,,,,,,,,,,,
1783160658,1783160658,216,0,4138.205078,4294.743652,4557.820313,4249.358887,4011.538574,4341.794922,4393.974121,4381.153809,4209.487305,3951.794922,4520.641113,4537.563965,4378.589844,4268.333496,930,1,34,,,,0,4,0,4,4,4,1,0,0,4,4,2,4,4,4,0,,,,,,,,,,,,,,,,,,,,,,,,,,,,,,,,,,,,,,,,,,,,,,,,27,0,0.656235,0.289185,-0.638611,0.279114,0.995239,0.019534,0.006348,-8.311795,45.201668,21.068302
1783160658,1783160658,217,0,4142.563965,4294.487305,4562.94873,4252.820313,4018.718018,4345.128418,4394.102539,4380,4215.256348,3956.794922,4525.384766,4541.794922,4387.436035,4274.871582,2443,1,34,,,,0,4,0,4,4,4,1,0,0,4,4,2,4,4,4,0,,,,,,,,,,,,,,,,,,,,,,,,,,,,,,,,,,,,,,,,,,,,,,,,,,,,,,,,,,,
1783160658,1783160658,218,0,4142.563965,4294.743652,4557.94873,4254.743652,4023.333252,4346.282227,4390.897461,4379.487305,4223.077148,3964.102539,4529.102539,4547.307617,4395.769043,4278.205078,2600,1,34,,,,0,4,0,4,4,4,1,0,0,4,4,2,4,4,4,0,,,,,,,,,,,,,,,,,,,,,,,,,,,,,,,,,,,,,,,,,,,,,,,,,,,,,,,,,,,
1783160658,1783160658,219,0,4137.692383,4295.512695,4544.487305,4254.743652,4025,4343.974121,4385.384766,4379.230957,4226.282227,3965.256348,4527.94873,4546.794922,4397.05127,4274.615234,2748,1,34,,,,0,4,0,4,4,4,1,0,0,4,4,2,4,4,4,0,,,,,,,,,,,,,,,,,,,,,,,,,,,,,,,,,,,,,,,,,,,,,,,,,,,,,,,,,,,
1783160658,1783160658,220,0,4131.025879,4296.410156,4529.743652,4253.333496,4024.743652,4339.871582,4380,4378.717773,4221.666504,3957.435791,4521.794922,4539.743652,4390.897461,4266.282227,930,1,34,,,,0,4,0,4,4,4,1,0,0,4,4,2,4,4,4,0,,,,,,,,,,,,,,,,,,,,,,,,,,,,,,,,,,,,,,,,,,,,,,,,,,,,,,,,,,,
1783160658,1783160658,221,0,4126.282227,4297.307617,4521.153809,4251.410156,4024.230713,4336.410156,4376.922852,4377.692383,4210.641113,3944.615479,4513.589844,4531.666504,4381.538574,4258.333496,2443,1,34,,,,0,4,0,4,4,4,1,0,0,4,4,2,4,4,4,0,,,,,,,,,,,,,,,,,,,,,,,,,,,,,,,,,,,,,,,,,,,,,,,,,,,,,,,,,,,
1783160658,1783160658,222,0,4125.384766,4297.563965,4519.871582,4249.871582,4024.358887,4334.871582,4376.282227,4376.410156,4198.589844,3932.564209,4507.820313,4529.230957,4375.384766,4255.512695,2600,1,34,,,,0,4,0,4,4,4,1,0,0,4,4,2,4,4,4,0,,,,,,,,,,,,,,,,,,,,,,,,,,,,,,,,,,,,,,,,,,,,,,,,,,,,,,,,,,,
1783160658,1783160658,223,0,4129.230957,4297.307617,4521.282227,4250.128418,4026.538574,4335.384766,4376.922852,4375.384766,4192.05127,3925.512939,4507.179688,4535.384766,4376.025879,4258.974121,2748,1,34,,,,0,4,0,4,4,4,1,0,0,4,4,2,4,4,4,0,,,,,,,,,,,,,,,,,,,,,,,,,,,,,,,,,,,,,,,,,,,,,,,,,,,,,,,,,,,
1783160658,1783160658,224,0,4137.436035,4296.922852,4519.743652,4253.461426,4032.179443,4337.179688,4377.563965,4374.487305,4194.358887,3924.615479,4511.794922,4548.205078,4383.717773,4267.436035,930,1,34,,,,0,4,0,4,4,4,1,0,0,4,4,2,4,4,4,0,,,,,,,,,,,,,,,,,,,,,,,,,,,,,,,,,,,,,,,,,,,,,,,,28,0,0.654252,0.293701,-0.636292,0.284302,1.002564,0.027835,0.000977,-8.213949,45.598167,21.144806
1783160658,1783160658,225,0,4148.077148,4296.922852,4512.563965,4259.615234,4040,4339.230957,4377.179688,4373.333496,4202.692383,3927.94873,4518.589844,4562.05127,4394.871582,4277.179688,2443,1,34,,,,0,4,0,4,4,4,1,0,0,4,4,2,4,4,4,0,,,,,,,,,,,,,,,,,,,,,,,,,,,,,,,,,,,,,,,,,,,,,,,,,,,,,,,,,,,
1783160658,1783160658,226,0,4156.153809,4297.179688,4500,4265.641113,4045.769287,4340.641113,4376.153809,4372.307617,4209.871582,3931.153809,4522.820313,4570.128418,4403.589844,4283.589844,2600,1,34,,,,0,4,0,4,4,4,1,0,0,4,4,2,4,4,4,0,,,,,,,,,,,,,,,,,,,,,,,,,,,,,,,,,,,,,,,,,,,,,,,,,,,,,,,,,,,
1783160658,1783160658,227,0,4157.05127,4297.179688,4484.871582,4268.974121,4045.256348,4340.769043,4375.512695,4371.666504,4209.487305,3929.487061,4520.769043,4568.846191,4404.487305,4282.820313,2748,1,34,,,,0,4,0,4,4,4,1,0,0,4,4,2,4,4,4,0,,,,,,,,,,,,,,,,,,,,,,,,,,,,,,,,,,,,,,,,,,,,,,,,,,,,,,,,,,,
1783160658,1783160658,228,0,4150.128418,4296.538574,4471.410156,4268.461426,4039.230713,4339.743652,4375.641113,4371.922852,4200.512695,3921.923096,4512.94873,4560.128418,4397.05127,4275.641113,930,1,34,,,,0,4,0,4,4,4,1,0,0,4,4,2,4,4,4,0,,,,,,,,,,,,,,,,,,,,,,,,,,,,,,,,,,,,,,,,,,,,,,,,,,,,,,,,,,,
1783160658,1783160658,229,0,4140.384766,4295.384766,4463.717773,4266.153809,4033.205078,4337.563965,4375.769043,4372.436035,4187.94873,3911.025635,4504.615234,4550.512695,4386.153809,4267.179688,2443,1,34,,,,0,4,0,4,4,4,1,0,0,4,4,2,4,4,4,0,,,,,,,,,,,,,,,,,,,,,,,,,,,,,,,,,,,,,,,,,,,,,,,,,,,,,,,,,,,
1783160658,1783160658,230,0,4134.358887,4294.358887,4463.077148,4264.102539,4031.666748,4334.358887,4374.615234,4372.179688,4178.846191,3901.410156,4501.153809,4545.641113,4379.102539,4264.102539,2600,1,34,,,,0,4,0,4,4,4,1,0,0,4,4,2,4,4,4,0,,,,,,,,,,,,,,,,,,,,,,,,,,,,,,,,,,,,,,,,,,,,,,,,,,,,,,,,,,,
1783160658,1783160658,231,0,4135,4293.846191,4466.153809,4263.077148,4034.743652,4330.384766,4371.922852,4370.128418,4177.307617,3896.153809,4504.615234,4546.666504,4379.487305,4268.461426,2748,1,34,,,,0,4,0,4,4,4,1,0,0,4,4,2,4,4,4,0,,,,,,,,,,,,,,,,,,,,,,,,,,,,,,,,,,,,,,,,,,,,,,,,,,,,,,,,,,,
1783160658,1783160658,232,0,4141.153809,4294.102539,4468.333496,4263.077148,4038.461426,4327.307617,4368.589844,4366.025879,4182.692383,3896.025635,4511.153809,4550.641113,4385.512695,4277.436035,930,1,34,,,,0,4,0,4,4,4,1,0,0,4,4,2,4,4,4,0,,,,,,,,,,,,,,,,,,,,,,,,,,,,,,,,,,,,,,,,,,,,,,,,29,0,0.651315,0.299988,-0.633301,0.291077,0.987425,0.007325,0.030765,-8.042555,45.705017,21.180325
1783160658,1783160658,233,0,4149.102539,4294.743652,4467.05127,4264.615234,4039.743652,4326.794922,4366.282227,4361.282227,4190.512695,3900.128174,4515.512695,4554.871582,4392.820313,4285.256348,2443,1,34,,,,0,4,0,4,4,4,1,0,0,4,4,2,4,4,4,0,,,,,,,,,,,,,,,,,,,,,,,,,,,,,,,,,,,,,,,,,,,,,,,,,,,,,,,,,,,
1783160658,1783160658,234,0,4156.410156,4296.025879,4464.487305,4268.846191,4039.487061,4329.358887,4365.641113,4358.846191,4195.897461,3905.769287,4515.512695,4559.743652,4398.205078,4288.333496,2600,1,34,,,,0,4,0,4,4,4,1,0,0,4,4,2,4,4,4,0,,,,,,,,,,,,,,,,,,,,,,,,,,,,,,,,,,,,,,,,,,,,,,,,,,,,,,,,,,,
1783160658,1783160658,235,0,4162.179688,4297.563965,4464.102539,4275.641113,4040.256348,4332.94873,4365.641113,4360.256348,4196.153809,3910.384521,4513.717773,4565.897461,4400.641113,4287.179688,2748,1,34,,,,0,4,0,4,4,4,1,0,0,4,4,2,4,4,4,0,,,,,,,,,,,,,,,,,,,,,,,,,,,,,,,,,,,,,,,,,,,,,,,,,,,,,,,,,,,
1783160658,1783160658,236,0,4165.769043,4298.589844,4467.436035,4281.666504,4043.333252,4334.358887,4364.871582,4364.487305,4192.307617,3911.538574,4514.358887,4571.922852,4400.512695,4285.512695,930,1,34,,,,0,4,0,4,4,4,1,0,0,4,4,2,4,4,4,0,,,,,,,,,,,,,,,,,,,,,,,,,,,,,,,,,,,,,,,,,,,,,,,,,,,,,,,,,,,
1783160658,1783160658,237,0,4167.436035,4298.077148,4472.179688,4283.974121,4047.692383,4332.179688,4362.563965,4368.974121,4187.692383,3908.718018,4518.461426,4575.256348,4398.974121,4285.897461,2443,1,34,,,,0,4,0,4,4,4,1,0,0,4,4,2,4,4,4,0,,,,,,,,,,,,,,,,,,,,,,,,,,,,,,,,,,,,,,,,,,,,,,,,,,,,,,,,,,,
1783160658,1783160658,238,0,4167.94873,4295.641113,4475.641113,4282.179688,4050.897461,4328.077148,4359.871582,4371.282227,4185.641113,3903.718018,4523.846191,4575.256348,4397.692383,4289.102539,2600,1,34,,,,0,4,0,4,4,4,1,0,0,4,4,2,4,4,4,0,,,,,,,,,,,,,,,,,,,,,,,,,,,,,,,,,,,,,,,,,,,,,,,,,,,,,,,,,,,
1783160658,1783160658,239,0,4167.692383,4292.05127,4476.666504,4279.871582,4052.307617,4325,4358.461426,4371.666504,4187.692383,3899.615479,4527.05127,4573.461426,4398.205078,4294.230957,2748,1,34,,,,0,4,0,4,4,4,1,0,0,4,4,2,4,4,4,0,,,,,,,,,,,,,,,,,,,,,,,,,,,,,,,,,,,,,,,,,,,,,,,,,,,,,,,,,,,
1783160658,1783160658,240,0,4167.307617,4288.846191,4475.769043,4281.538574,4052.564209,4325.384766,4359.358887,4371.538574,4192.94873,3899.102539,4526.666504,4571.153809,4401.538574,4300.897461,930,1,34,,,,0,4,0,4,4,4,1,0,0,4,4,2,4,4,4,0,,,,,,,,,,,,,,,,,,,,,,,,,,,,,,,,,,,,,,,,,,,,,,,,30,0,0.649571,0.303772,-0.631165,0.295654,0.98303,0.015139,0.029789,-8.038299,45.751183,21.195625
1783160658,1783160658,241,0,4167.820313,4287.692383,4474.743652,4289.487305,4053.846191,4328.589844,4362.179688,4372.436035,4198.589844,3902.820557,4524.487305,4569.358887,4406.922852,4308.589844,2443,1,34,,,,0,4,0,4,4,4,1,0,0,4,4,2,4,4,4,0,,,,,,,,,,,,,,,,,,,,,,,,,,,,,,,,,,,,,,,,,,,,,,,,,,,,,,,,,,,
1783160658,1783160658,242,0,4169.743652,4289.102539,4474.358887,4300.769043,4056.923096,4332.05127,4364.871582,4374.102539,4203.205078,3908.974365,4523.589844,4568.717773,4412.05127,4315.384766,2600,1,34,,,,0,4,0,4,4,4,1,0,0,4,4,2,4,4,4,0,,,,,,,,,,,,,,,,,,,,,,,,,,,,,,,,,,,,,,,,,,,,,,,,,,,,,,,,,,,
1783160658,1783160658,243,0,4172.692383,4292.307617,4474.615234,4309.743652,4060.769287,4333.333496,4366.538574,4375.512695,4205.769043,3914.743652,4526.538574,4569.743652,4415.128418,4319.102539,2748,1,34,,,,0,4,0,4,4,4,1,0,0,4,4,2,4,4,4,0,,,,,,,,,,,,,,,,,,,,,,,,,,,,,,,,,,,,,,,,,,,,,,,,,,,,,,,,,,,
1783160658,1783160658,244,0,4174.487305,4295.512695,4474.230957,4310.769043,4062.692383,4331.538574,4366.922852,4375.641113,4205.769043,3918.461426,4532.179688,4571.410156,4415.641113,4317.94873,930,1,34,,,,0,4,0,4,4,4,1,0,0,4,4,2,4,4,4,0,,,,,,,,,,,,,,,,,,,,,,,,,,,,,,,,,,,,,,,,,,,,,,,,,,,,,,,,,,,
1783160658,1783160658,245,0,4172.692383,4297.436035,4470.769043,4302.820313,4060.641113,4328.205078,4366.922852,4374.871582,4202.436035,3918.718018,4536.922852,4571.666504,4414.871582,4312.692383,2443,1,34,,,,0,4,0,4,4,4,1,0,0,4,4,2,4,4,4,0,,,,,,,,,,,,,,,,,,,,,,,,,,,,,,,,,,,,,,,,,,,,,,,,,,,,,,,,,,,
1783160658,1783160658,246,0,4168.077148,4297.692383,4463.461426,4290.512695,4056.025635,4325.128418,4367.05127,4373.974121,4196.794922,3915.769287,4537.436035,4569.871582,4414.615234,4306.153809,2600,1,34,,,,0,4,0,4,4,4,1,0,0,4,4,2,4,4,4,0,,,,,,,,,,,,,,,,,,,,,,,,,,,,,,,,,,,,,,,,,,,,,,,,,,,,,,,,,,,
1783160658,1783160658,247,0,4163.846191,4296.922852,4454.871582,4281.282227,4053.205078,4323.205078,4367.563965,4373.333496,4191.538574,3910.897461,4533.717773,4567.820313,4416.153809,4302.436035,2748,1,34,,,,0,4,0,4,4,4,1,0,0,4,4,2,4,4,4,0,,,,,,,,,,,,,,,,,,,,,,,,,,,,,,,,,,,,,,,,,,,,,,,,,,,,,,,,,,,
1783160658,1783160658,248,0,4163.717773,4296.538574,4450.128418,4280.256348,4056.666748,4322.563965,4367.307617,4372.179688,4190,3906.281982,4528.974121,4568.974121,4419.743652,4303.974121,930,1,34,,,,0,4,0,4,4,4,1,0,0,4,4,2,4,4,4,0,,,,,,,,,,,,,,,,,,,,,,,,,,,,,,,,,,,,,,,,,,,,,,,,31,0,0.647314,0.309082,-0.627686,0.302429,0.981565,-0.004395,0.039556,-8.167803,45.992733,21.159397
1783160658,1783160658,249,0,4167.179688,4296.538574,4451.025879,4285.897461,4065,4322.179688,4365.384766,4369.615234,4192.05127,3903.205078,4526.666504,4574.358887,4423.974121,4308.205078,2443,1,34,,,,0,4,0,4,4,4,1,0,0,4,4,2,4,4,4,0,,,,,,,,,,,,,,,,,,,,,,,,,,,,,,,,,,,,,,,,,,,,,,,,,,,,,,,,,,,
1783160658,1783160658,250,0,4170.512695,4296.666504,4453.077148,4292.179688,4071.794922,4321.282227,4361.922852,4366.025879,4194.743652,3901.538574,4526.794922,4580.641113,4426.025879,4309.871582,2600,1,34,,,,0,4,0,4,4,4,1,0,0,4,4,2,4,4,4,0,,,,,,,,,,,,,,,,,,,,,,,,,,,,,,,,,,,,,,,,,,,,,,,,,,,,,,,,,,,
1783160658,1783160658,251,0,4169.743652,4296.282227,4450.256348,4293.589844,4072.179443,4320.641113,4359.230957,4362.436035,4194.871582,3901.153809,4527.05127,4582.563965,4424.487305,4305.128418,2748,1,34,,,,0,4,0,4,4,4,1,0,0,4,4,2,4,4,4,0,,,,,,,,,,,,,,,,,,,,,,,,,,,,,,,,,,,,,,,,,,,,,,,,,,,,,,,,,,,
1783160658,1783160658,252,0,4165,4295.769043,4441.025879,4290.384766,4068.846191,4321.025879,4359.102539,4360.641113,4192.820313,3903.589844,4525.256348,4577.820313,4421.153809,4296.025879,930,1,34,,,,0,4,0,4,4,4,1,0,0,4,4,2,4,4,4,0,,,,,,,,,,,,,,,,,,,,,,,,,,,,,,,,,,,,,,,,,,,,,,,,,,,,,,,,,,,
1783160658,1783160658,253,0,4160,4295.512695,4430.256348,4287.05127,4069.743652,4322.307617,4361.538574,4361.538574,4191.666504,3910.384521,4521.794922,4569.743652,4420.512695,4288.846191,2443,1,34,,,,0,4,0,4,4,4,1,0,0,4,4,2,4,4,4,0,,,,,,,,,,,,,,,,,,,,,,,,,,,,,,,,,,,,,,,,,,,,,,,,,,,,,,,,,,,
1783160658,1783160658,254,0,4158.846191,4295.897461,4424.871582,4288.077148,4080.641113,4322.692383,4365.128418,4364.358887,4193.974121,3920.512939,4517.94873,4563.846191,4424.487305,4288.205078,2600,1,34,,,,0,4,0,4,4,4,1,0,0,4,4,2,4,4,4,0,,,,,,,,,,,,,,,,,,,,,,,,,,,,,,,,,,,,,,,,,,,,,,,,,,,,,,,,,,,
1783160658,1783160658,255,0,4162.307617,4296.666504,4428.461426,4293.974121,4098.717773,4321.153809,4367.692383,4367.692383,4199.487305,3929.487061,4514.743652,4563.717773,4430.769043,4293.717773,34,1,34,,,,0,4,0,4,4,4,1,0,0,4,4,2,4,4,4,0,,,,,,,,,,,,,,,,,,,,,,,,,,,,,,,,,,,,,,,,,,,,,,,,,,,,,,,,,,,
1783160658,1783160658,0,0,4168.077148,4297.563965,4439.615234,4301.153809,4115.256348,4318.589844,4368.461426,4369.743652,4205,3932.692383,4511.666504,4568.333496,4434.230957,4301.025879,2202,1,34,,,,0,4,0,4,4,4,1,0,0,4,4,2,4,4,4,0,,,,,,,,,,,,,,,,,,,,,,,,,,,,,,,,,,,,,,,,,,,,,,,,0,0,0.646258,0.31189,-0.625427,0.306458,0.963985,-0.000488,0.031742,-8.151022,46.043457,21.293457
1783160658,1783160658,1,0,4172.94873,4297.94873,4453.717773,4305.512695,4123.077148,4316.922852,4368.461426,4370.512695,4206.922852,3929.743652,4507.94873,4573.205078,4431.666504,4305.384766,2404,1,34,,,,0,4,0,4,4,4,1,0,0,4,4,2,4,4,4,0,,,,,,,,,,,,,,,,,,,,,,,,,,,,,,,,,,,,,,,,,,,,,,,,,,,,,,,,,,,
1783160658,1783160658,2,0,4175,4297.692383,4466.538574,4304.615234,4121.666504,4317.692383,4368.846191,4370.769043,4204.358887,3924.871826,4502.94873,4574.487305,4424.358887,4305.256348,2753,1,34,,,,0,4,0,4,4,4,1,0,0,4,4,2,4,4,4,0,,,,,,,,,,,,,,,,,,,,,,,,,,,,,,,,,,,,,,,,,,,,,,,,,,,,,,,,,,,
1783160658,1783160658,3,0,4173.974121,4296.538574,4476.153809,4299.358887,4117.563965,4320,4368.846191,4370.897461,4198.589844,3922.564209,4497.179688,4571.922852,4416.666504,4301.410156,0,1,34,,,,0,4,0,4,4,4,1,0,0,4,4,2,4,4,4,0,,,,,,,,,,,,,,,,,,,,,,,,,,,,,,,,,,,,,,,,,,,,,,,,,,,,,,,,,,,
1783160658,1783160658,4,0,4170.769043,4294.871582,4482.436035,4292.820313,4118.205078,4321.666504,4367.563965,4370.641113,4192.179688,3924.102539,4491.794922,4568.846191,4412.307617,4296.153809,2496,1,34,,,,0,4,0,4,4,4,1,0,0,4,4,2,4,4,4,0,,,,,,,,,,,,,,,,,,,,,,,,,,,,,,,,,,,,,,,,,,,,,,,,,,,,,,,,,,,
1783160658,1783160658,5,0,4167.820313,4293.205078,4486.794922,4288.589844,4126.922852,4321.538574,4365.128418,4370,4187.820313,3927.307617,4487.94873,4568.589844,4411.666504,4291.282227,305,1,34,,,,0,4,0,4,4,4,1,0,0,4,4,2,4,4,4,0,,,,,,,,,,,,,,,,,,,,,,,,,,,,,,,,,,,,,,,,,,,,,,,,,,,,,,,,,,,
1783160658,1783160658,6,0,4167.692383,4292.563965,4490.384766,4289.230957,4140.769043,4320.769043,4362.94873,4368.461426,4186.538574,3928.974365,4486.794922,4571.282227,4413.077148,4288.333496,0,1,34,,,,0,4,0,4,4,4,1,0,0,4,4,2,4,4,4,0,,,,,,,,,,,,,,,,,,,,,,,,,,,,,,,,,,,,,,,,,,,,,,,,,,,,,,,,,,,
1783160658,1783160658,7,0,4172.179688,4293.974121,4493.077148,4293.974121,4153.333496,4321.282227,4362.94873,4366.282227,4187.563965,3927.820557,4487.94873,4573.589844,4414.102539,4289.358887,0,1,34,,,,0,4,0,4,4,4,1,0,0,4,4,2,4,4,4,0,,,,,,,,,,,,,,,,,,,,,,,,,,,,,,,,,,,,,,,,,,,,,,,,,,,,,,,,,,,
1783160658,1783160658,8,0,4180.897461,4297.05127,4494.102539,4299.871582,4159.871582,4323.589844,4365.384766,4364.102539,4188.974121,3924.358887,4490.384766,4572.307617,4414.230957,4295.384766,1947,1,34,,,,0,4,0,4,4,4,1,0,0,4,4,2,4,4,4,0,,,,,,,,,,,,,,,,,,,,,,,,,,,,,,,,,,,,,,,,,,,,,,,,1,0,0.646097,0.314209,-0.622864,0.309631,0.96545,0.013185,0.045416,-8.03592,46.189114,21.430779
1783160658,1783160658,9,0,4191.025879,4299.615234,4493.205078,4303.589844,4160.256348,4325.641113,4368.717773,4362.820313,4189.743652,3920.769287,4493.077148,4568.717773,4414.358887,4305.512695,2451,1,34,,,,0,4,0,4,4,4,1,0,0,4,4,2,4,4,4,0,,,,,,,,,,,,,,,,,,,,,,,,,,,,,,,,,,,,,,,,,,,,,,,,,,,,,,,,,,,
1783160658,1783160658,10,0,4199.102539,4299.487305,4491.538574,4303.974121,4159.487305,4325,4371.538574,4363.846191,4191.025879,3920.384521,4495.641113,4568.333496,4416.282227,4317.05127,2631,1,34,,,,0,4,0,4,4,4,1,0,0,4,4,2,4,4,4,0,,,,,,,,,,,,,,,,,,,,,,,,,,,,,,,,,,,,,,,,,,,,,,,,,,,,,,,,,,,
1783160658,1783160658,11,0,4203.333496,4295.769043,4491.025879,4303.077148,4162.307617,4321.153809,4372.563965,4367.05127,4194.358887,3925.641113,4497.820313,4575.512695,4421.153809,4325.641113,2743,1,34,,,,0,4,0,4,4,4,1,0,0,4,4,2,4,4,4,0,,,,,,,,,,,,,,,,,,,,,,,,,,,,,,,,,,,,,,,,,,,,,,,,,,,,,,,,,,,
1783160658,1783160658,12,0,4203.974121,4289.743652,4491.666504,4303.717773,4169.230957,4316.922852,4371.794922,4371.025879,4199.743652,3935.128174,4499.230957,4588.846191,4428.077148,4328.974121,956,1,34,,,,0,4,0,4,4,4,1,0,0,4,4,2,4,4,4,0,,,,,,,,,,,,,,,,,,,,,,,,,,,,,,,,,,,,,,,,,,,,,,,,,,,,,,,,,,,
1783160658,1783160658,13,0,4202.820313,4284.358887,4491.410156,4306.538574,4175.641113,4315.897461,4369.871582,4373.205078,4203.974121,3943.974365,4499.358887,4600.897461,4434.615234,4327.307617,2486,1,34,,,,0,4,0,4,4,4,1,0,0,4,4,2,4,4,4,0,,,,,,,,,,,,,,,,,,,,,,,,,,,,,,,,,,,,,,,,,,,,,,,,,,,,,,,,,,,
1783160658,1783160658,14,0,4200.897461,4282.692383,4487.692383,4309.871582,4176.410156,4319.871582,4367.94873,4372.307617,4203.589844,3945.897461,4498.077148,4603.717773,4437.179688,4323.077148,2631,1,34,,,,0,4,0,4,4,4,1,0,0,4,4,2,4,4,4,0,,,,,,,,,,,,,,,,,,,,,,,,,,,,,,,,,,,,,,,,,,,,,,,,,,,,,,,,,,,
1783160658,1783160658,15,0,4197.94873,4285.512695,4479.615234,4310.897461,4170.256348,4326.410156,4366.538574,4368.461426,4197.94873,3939.358887,4496.794922,4594.743652,4434.487305,4318.589844,2743,1,34,,,,0,4,0,4,4,4,1,0,0,4,4,2,4,4,4,0,,,,,,,,,,,,,,,,,,,,,,,,,,,,,,,,,,,,,,,,,,,,,,,,,,,,,,,,,,,
1783160658,1783160658,16,0,4193.077148,4290.769043,4468.974121,4308.333496,4161.025879,4331.153809,4365.256348,4363.589844,4190.769043,3929.102539,4496.153809,4579.615234,4428.333496,4314.743652,956,1,34,,,,0,4,0,4,4,4,1,0,0,4,4,2,4,4,4,0,,,,,,,,,,,,,,,,,,,,,,,,,,,,,,,,,,,,,,,,,,,,,,,,2,0,0.646816,0.318237,-0.618286,0.313171,0.989379,0.013185,0.046392,-8.215661,46.320202,21.4377
1783160658,1783160658,17,0,4186.666504,4295.384766,4458.461426,4303.077148,4154.615234,4331.025879,4363.846191,4360.512695,4186.282227,3922.564209,4496.282227,4567.436035,4422.436035,4310.256348,2486,1,34,,,,0,4,0,4,4,4,1,0,0,4,4,2,4,4,4,0,,,,,,,,,,,,,,,,,,,,,,,,,,,,,,,,,,,,,,,,,,,,,,,,,,,,,,,,,,,
1783160658,1783160658,18,0,4180,4296.922852,4450.128418,4297.307617,4154.743652,4326.282227,4362.563965,4360.641113,4186.153809,3922.820557,4495.897461,4563.974121,4419.358887,4303.333496,2631,1,34,,,,0,4,0,4,4,4,1,0,0,4,4,2,4,4,4,0,,,,,,,,,,,,,,,,,,,,,,,,,,,,,,,,,,,,,,,,,,,,,,,,,,,,,,,,,,,
1783160658,1783160658,19,0,4173.974121,4295,4444.487305,4293.589844,4160.769043,4320.512695,4362.563965,4363.589844,4187.820313,3926.538574,4494.102539,4567.05127,4418.077148,4293.846191,2743,1,34,,,,0,4,0,4,4,4,1,0,0,4,4,2,4,4,4,0,,,,,,,,,,,,,,,,,,,,,,,,,,,,,,,,,,,,,,,,,,,,,,,,,,,,,,,,,,,
1783160658,1783160658,20,0,4169.230957,4291.410156,4441.410156,4293.077148,4169.102539,4316.922852,4364.230957,4366.666504,4187.563965,3927.05127,4491.538574,4569.871582,4416.666504,4284.358887,956,1,34,,,,0,4,0,4,4,4,1,0,0,4,4,2,4,4,4,0,,,,,,,,,,,,,,,,,,,,,,,,,,,,,,,,,,,,,,,,,,,,,,,,,,,,,,,,,,,
1783160658,1783160658,21,0,4165.769043,4288.077148,4440.384766,4294.743652,4175.128418,4316.538574,4366.410156,4367.692383,4183.077148,3920.512939,4490,4566.794922,4413.589844,4277.692383,2486,1,34,,,,0,4,0,4,4,4,1,0,0,4,4,2,4,4,4,0,,,,,,,,,,,,,,,,,,,,,,,,,,,,,,,,,,,,,,,,,,,,,,,,,,,,,,,,,,,
1783160658,1783160658,22,0,4163.589844,4286.410156,4441.153809,4295.897461,4176.410156,4318.077148,4366.410156,4366.025879,4174.871582,3908.461426,4491.025879,4558.589844,4410,4275.641113,2631,1,34,,,,0,4,0,4,4,4,1,0,0,4,4,2,4,4,4,0,,,,,,,,,,,,,,,,,,,,,,,,,,,,,,,,,,,,,,,,,,,,,,,,,,,,,,,,,,,
1783160658,1783160658,23,0,4162.692383,4286.282227,4442.820313,4294.615234,4174.743652,4319.102539,4362.820313,4363.205078,4165.512695,3895.897461,4494.230957,4550,4407.820313,4277.307617,2743,1,34,,,,0,4,0,4,4,4,1,0,0,4,4,2,4,4,4,0,,,,,,,,,,,,,,,,,,,,,,,,,,,,,,,,,,,,,,,,,,,,,,,,,,,,,,,,,,,
1783160658,1783160658,24,0,4163.846191,4286.922852,4445.512695,4291.794922,4175.256348,4318.333496,4357.307617,4361.410156,4158.717773,3887.692383,4497.820313,4545.384766,4408.333496,4281.538574,956,1,34,,,,0,4,0,4,4,4,1,0,0,4,4,2,4,4,4,0,,,,,,,,,,,,,,,,,,,,,,,,,,,,,,,,,,,,,,,,,,,,,,,,3,0,0.647277,0.320984,-0.615479,0.314941,1.011842,0.012697,0.044439,-8.110762,46.421516,21.377264
1783160658,1783160658,25,0,4168.589844,4287.563965,4450.512695,4291.153809,4182.307617,4316.538574,4353.461426,4361.025879,4157.179688,3886.410156,4499.743652,4547.05127,4412.563965,4286.794922,2486,1,34,,,,0,4,0,4,4,4,1,0,0,4,4,2,4,4,4,0,,,,,,,,,,,,,,,,,,,,,,,,,,,,,,,,,,,,,,,,,,,,,,,,,,,,,,,,,,,
1783160658,1783160658,26,0,4177.94873,4287.820313,4458.846191,4295.897461,4196.538574,4315.256348,4353.846191,4361.025879,4161.410156,3891.153809,4499.615234,4554.615234,4420.256348,4292.820313,2631,1,34,,,,0,4,0,4,4,4,1,0,0,4,4,2,4,4,4,0,,,,,,,,,,,,,,,,,,,,,,,,,,,,,,,,,,,,,,,,,,,,,,,,,,,,,,,,,,,
