title:Session_019_29Jun2026,start timestamp:1782732800.186375,stop timestamp:1782732865.302140,headset type:EPOCX,headset serial:E7020186,headset firmware:740,channels:98,sampling rate:eeg_256;pm_0.1;mot_32,samples:16680,version:2.2,,,,,,,,,,,,,,,,,,,,,,,,,,,,,,,,,,,,,,,,,,,,,,,,,,,,,,,,,,,,,,,,,,,,,,,,,,,,,,,,,,,,,,,,,
Timestamp,OriginalTimestamp,EEG.Counter,EEG.Interpolated,EEG.AF3,EEG.F7,EEG.F3,EEG.FC5,EEG.T7,EEG.P7,EEG.O1,EEG.O2,EEG.P8,EEG.T8,EEG.FC6,EEG.F4,EEG.F8,EEG.AF4,EEG.RawCq,EEG.Battery,EEG.BatteryPercent,MarkerIndex,MarkerType,MarkerValueInt,EEG.MarkerHardware,CQ.AF3,CQ.F7,CQ.F3,CQ.FC5,CQ.T7,CQ.P7,CQ.O1,CQ.O2,CQ.P8,CQ.T8,CQ.FC6,CQ.F4,CQ.F8,CQ.AF4,CQ.Overall,EQ.SampleRateQuality,EQ.OVERALL,EQ.AF3,EQ.F7,EQ.F3,EQ.FC5,EQ.T7,EQ.P7,EQ.O1,EQ.O2,EQ.P8,EQ.T8,EQ.FC6,EQ.F4,EQ.F8,EQ.AF4,PM.Attention.IsActive,PM.Attention.Scaled,PM.Attention.Raw,PM.Attention.Min,PM.Attention.Max,PM.Engagement.IsActive,PM.Engagement.Scaled,PM.Engagement.Raw,PM.Engagement.Min,PM.Engagement.Max,PM.Excitement.IsActive,PM.Excitement.Scaled,PM.Excitement.Raw,PM.Excitement.Min,PM.Excitement.Max,PM.LongTermExcitement,PM.Stress.IsActive,PM.Stress.Scaled,PM.Stress.Raw,PM.Stress.Min,PM.Stress.Max,PM.Relaxation.IsActive,PM.Relaxation.Scaled,PM.Relaxation.Raw,PM.Relaxation.Min,PM.Relaxation.Max,PM.Interest.IsActive,PM.Interest.Scaled,PM.Interest.Raw,PM.Interest.Min,PM.Interest.Max,MOT.CounterMems,MOT.InterpolatedMems,MOT.Q0,MOT.Q1,MOT.Q2,MOT.Q3,MOT.AccX,MOT.AccY,MOT.AccZ,MOT.MagX,MOT.MagY,MOT.MagZ
1782732800,1782732800,163,0,4419.230957,4306.538574,4395.512695,4296.922852,4329.615234,4336.282227,4211.538574,3925.128174,5211.538574,4514.871582,4651.282227,4364.102539,4520.128418,4761.666504,2770,2,45,,,,0,4,0,4,2,0,0,1,4,1,0,4,1,4,4,0,,,,,,,,,,,,,,,,,,,,,,,,,,,,,,,,,,,,,,,,,,,,,,,,,,,,,,,,,,,
1782732800,1782732800,164,0,4410.512695,4306.282227,4391.666504,4288.205078,4328.717773,4335.384766,4220,3908.846191,5197.05127,4511.794922,4597.563965,4362.179688,4519.487305,4755.384766,2874,2,45,,,,0,4,0,4,2,0,0,1,4,1,0,4,1,4,4,0,,,,,,,,,,,,,,,,,,,,,,,,,,,,,,,,,,,,,,,,,,,,,,,,,,,,,,,,,,,
1782732800,1782732800,165,0,4393.205078,4304.871582,4379.358887,4277.436035,4324.358887,4334.102539,4229.358887,3900.128174,5182.820313,4491.538574,4518.333496,4359.102539,4501.922852,4744.743652,173,2,45,,,,0,4,0,4,2,0,0,1,4,1,0,4,1,4,4,0,,,,,,,,,,,,,,,,,,,,,,,,,,,,,,,,,,,,,,,,,,,,,,,,,,,,,,,,,,,
1782732800,1782732800,166,0,4368.717773,4303.461426,4357.436035,4268.205078,4318.205078,4333.846191,4240.769043,3895.641113,5169.487305,4455.384766,4461.153809,4355.641113,4484.487305,4729.615234,2192,2,45,,,,0,4,0,4,2,0,0,1,4,1,0,4,1,4,4,0,,,,,,,,,,,,,,,,,,,,,,,,,,,,,,,,,,,,,,,,,,,,,,,,,,,,,,,,,,,
1782732800,1782732800,167,0,4341.794922,4303.333496,4330.641113,4263.846191,4312.94873,4335.641113,4255.256348,3890,5157.563965,4413.717773,4456.282227,4352.692383,4478.589844,4711.666504,2770,2,45,,,,0,4,0,4,2,0,0,1,4,1,0,4,1,4,4,0,,,,,,,,,,,,,,,,,,,,,,,,,,,,,,,,,,,,,,,,,,,,,,,,,,,,,,,,,,,
1782732800,1782732800,168,0,4318.717773,4305.128418,4308.205078,4267.692383,4310.512695,4340.128418,4272.820313,3879.487061,5148.461426,4381.025879,4497.692383,4351.025879,4487.179688,4694.743652,2874,2,45,,,,0,4,0,4,2,0,0,1,4,1,0,4,1,4,4,0,,,,,,,,,,,,,,,,,,,,,,,,,,,,,,,,,,,,,,,,,,,,,,,,21,0,0.25149,-0.172607,0.69635,0.649658,-0.566964,0.828592,-0.005494,-41.738518,-49.796383,-10.126499
1782732800,1782732800,169,0,4303.589844,4308.077148,4297.563965,4280.641113,4309.487305,4347.307617,4292.820313,3865.769287,5141.922852,4367.94873,4554.102539,4350.897461,4507.179688,4684.871582,173,2,45,,,,0,4,0,4,2,0,0,1,4,1,0,4,1,4,4,0,,,,,,,,,,,,,,,,,,,,,,,,,,,,,,,,,,,,,,,,,,,,,,,,,,,,,,,,,,,
1782732800,1782732800,170,0,4297.692383,4310.641113,4299.615234,4300.384766,4306.794922,4356.025879,4312.307617,3854.102539,5136.282227,4373.974121,4596.538574,4352.307617,4533.846191,4686.153809,2192,2,45,,,,0,4,0,4,2,0,0,1,4,1,0,4,1,4,4,0,,,,,,,,,,,,,,,,,,,,,,,,,,,,,,,,,,,,,,,,,,,,,,,,,,,,,,,,,,,
1782732800,1782732800,171,0,4301.410156,4311.153809,4309.743652,4321.666504,4299.487305,4365,4328.077148,3848.461426,5131.025879,4386.282227,4616.025879,4355.128418,4562.692383,4698.205078,2770,2,45,,,,0,4,0,4,2,0,0,1,4,1,0,4,1,4,4,0,,,,,,,,,,,,,,,,,,,,,,,,,,,,,,,,,,,,,,,,,,,,,,,,,,,,,,,,,,,
1782732800,1782732800,172,0,4313.461426,4309.102539,4321.410156,4338.205078,4287.436035,4372.307617,4338.077148,3848.846191,5128.461426,4388.589844,4618.846191,4358.333496,4587.820313,4713.461426,2874,2,45,,,,0,4,0,4,2,0,0,1,4,1,0,4,1,4,4,0,,,,,,,,,,,,,,,,,,,,,,,,,,,,,,,,,,,,,,,,,,,,,,,,,,,,,,,,,,,
1782732800,1782732800,173,0,4328.077148,4305.512695,4329.102539,4343.717773,4274.358887,4377.307617,4342.436035,3850.897461,5130.512695,4374.487305,4607.820313,4360.641113,4600.641113,4720,173,2,45,,,,0,4,0,4,2,0,0,1,4,1,0,4,1,4,4,0,,,,,,,,,,,,,,,,,,,,,,,,,,,,,,,,,,,,,,,,,,,,,,,,,,,,,,,,,,,
1782732800,1782732800,174,0,4334.230957,4302.94873,4328.717773,4335.512695,4265.128418,4380,4343.333496,3849.487061,5135.256348,4355.641113,4575.769043,4360.897461,4593.461426,4706.794922,2192,2,45,,,,0,4,0,4,2,0,0,1,4,1,0,4,1,4,4,0,,,,,,,,,,,,,,,,,,,,,,,,,,,,,,,,,,,,,,,,,,,,,,,,,,,,,,,,,,,
1782732800,1782732800,175,0,4322.307617,4302.94873,4318.205078,4318.077148,4262.179688,4381.153809,4342.820313,3842.05127,5136.410156,4353.333496,4520.512695,4358.589844,4566.282227,4672.307617,2770,2,45,,,,0,4,0,4,2,0,0,1,4,1,0,4,1,4,4,0,,,,,,,,,,,,,,,,,,,,,,,,,,,,,,,,,,,,,,,,,,,,,,,,,,,,,,,,,,,
1782732800,1782732800,176,0,4294.230957,4305.512695,4301.153809,4303.461426,4263.589844,4380.897461,4341.666504,3831.410156,5128.205078,4381.666504,4462.563965,4355.641113,4530.897461,4628.589844,2874,2,45,,,,0,4,0,4,2,0,0,1,4,1,0,4,1,4,4,0,,,,,,,,,,,,,,,,,,,,,,,,,,,,,,,,,,,,,,,,,,,,,,,,22,0,0.270392,-0.167114,0.696838,0.642944,-0.629471,0.811012,-0.037236,-41.064667,-50.416744,-10.080516
1782732800,1782732800,177,0,4265.256348,4308.461426,4286.922852,4305.128418,4264.871582,4378.461426,4338.205078,3822.820557,5110.641113,4434.871582,4437.179688,4354.743652,4503.589844,4593.974121,173,2,45,,,,0,4,0,4,2,0,0,1,4,1,0,4,1,4,4,0,,,,,,,,,,,,,,,,,,,,,,,,,,,,,,,,,,,,,,,,,,,,,,,,,,,,,,,,,,,
1782732800,1782732800,178,0,4253.461426,4310,4285.769043,4327.563965,4262.94873,4372.692383,4330.641113,3819.487061,5089.871582,4491.666504,4464.230957,4357.94873,4491.153809,4581.922852,2192,2,45,,,,0,4,0,4,2,0,0,1,4,1,0,4,1,4,4,0,,,,,,,,,,,,,,,,,,,,,,,,,,,,,,,,,,,,,,,,,,,,,,,,,,,,,,,,,,,
1782732800,1782732800,179,0,4265.384766,4309.230957,4299.615234,4360.769043,4258.333496,4363.461426,4319.871582,3819.615479,5072.692383,4531.922852,4523.846191,4364.102539,4483.077148,4592.307617,2770,2,45,,,,0,4,0,4,2,0,0,1,4,1,0,4,1,4,4,0,,,,,,,,,,,,,,,,,,,,,,,,,,,,,,,,,,,,,,,,,,,,,,,,,,,,,,,,,,,
1782732800,1782732800,180,0,4290.384766,4306.922852,4318.589844,4385.128418,4254.102539,4352.179688,4309.743652,3818.589844,5062.436035,4549.102539,4567.436035,4369.230957,4461.538574,4611.410156,2874,2,45,,,,0,4,0,4,2,0,0,1,4,1,0,4,1,4,4,0,,,,,,,,,,,,,,,,,,,,,,,,,,,,,,,,,,,,,,,,,,,,,,,,,,,,,,,,,,,
1782732800,1782732800,181,0,4308.974121,4304.102539,4327.436035,4385.512695,4253.461426,4341.666504,4305.512695,3812.564209,5057.05127,4550.769043,4556.922852,4369.487305,4418.717773,4621.282227,173,2,45,,,,0,4,0,4,2,0,0,1,4,1,0,4,1,4,4,0,,,,,,,,,,,,,,,,,,,,,,,,,,,,,,,,,,,,,,,,,,,,,,,,,,,,,,,,,,,
1782732800,1782732800,182,0,4308.589844,4302.436035,4317.94873,4363.077148,4256.538574,4333.461426,4309.615234,3801.923096,5051.153809,4550.769043,4497.692383,4364.871582,4365,4610.641113,2192,2,45,,,,0,4,0,4,2,0,0,1,4,1,0,4,1,4,4,0,,,,,,,,,,,,,,,,,,,,,,,,,,,,,,,,,,,,,,,,,,,,,,,,,,,,,,,,,,,
1782732800,1782732800,183,0,4292.307617,4302.05127,4296.410156,4335.512695,4261.794922,4327.307617,4319.487305,3791.025635,5040.641113,4560.512695,4434.358887,4359.743652,4320.128418,4582.94873,2770,2,45,,,,0,4,0,4,2,0,0,1,4,1,0,4,1,4,4,0,,,,,,,,,,,,,,,,,,,,,,,,,,,,,,,,,,,,,,,,,,,,,,,,,,,,,,,,,,,
1782732800,1782732800,184,0,4275.641113,4302.820313,4279.615234,4324.487305,4266.025879,4321.410156,4330.128418,3785.384521,5026.922852,4582.307617,4412.307617,4358.846191,4294.743652,4553.077148,2874,2,45,,,,0,4,0,4,2,0,0,1,4,1,0,4,1,4,4,0,,,,,,,,,,,,,,,,,,,,,,,,,,,,,,,,,,,,,,,,,,,,,,,,23,0,0.296628,-0.157898,0.698914,0.631348,-0.671957,0.798804,-0.087535,-40.3582,-51.125069,-9.889132
1782732800,1782732800,185,0,4271.922852,4303.717773,4280.512695,4339.615234,4267.563965,4314.487305,4337.820313,3787.564209,5015.897461,4606.922852,4440.641113,4363.333496,4283.974121,4536.538574,173,2,45,,,,0,4,0,4,2,0,0,1,4,1,0,4,1,4,4,0,,,,,,,,,,,,,,,,,,,,,,,,,,,,,,,,,,,,,,,,,,,,,,,,,,,,,,,,,,,
1782732800,1782732800,186,0,4282.563965,4304.230957,4297.94873,4372.05127,4266.282227,4306.153809,4342.820313,3796.153809,5014.487305,4616.538574,4488.846191,4369.615234,4275.641113,4538.717773,2192,2,45,,,,0,4,0,4,2,0,0,1,4,1,0,4,1,4,4,0,,,,,,,,,,,,,,,,,,,,,,,,,,,,,,,,,,,,,,,,,,,,,,,,,,,,,,,,,,,
1782732800,1782732800,187,0,4297.692383,4304.102539,4318.077148,4402.820313,4264.102539,4297.820313,4348.205078,3807.179443,5024.487305,4596.153809,4518.461426,4372.94873,4266.282227,4554.743652,2770,2,45,,,,0,4,0,4,2,0,0,1,4,1,0,4,1,4,4,0,,,,,,,,,,,,,,,,,,,,,,,,,,,,,,,,,,,,,,,,,,,,,,,,,,,,,,,,,,,
1782732800,1782732800,188,0,4306.410156,4303.589844,4327.05127,4416.153809,4262.94873,4291.153809,4356.153809,3816.794922,5040.256348,4547.820313,4514.743652,4371.153809,4265.128418,4573.333496,2874,2,45,,,,0,4,0,4,2,0,0,1,4,1,0,4,1,4,4,0,,,,,,,,,,,,,,,,,,,,,,,,,,,,,,,,,,,,,,,,,,,,,,,,,,,,,,,,,,,
1782732800,1782732800,189,0,4304.871582,4303.205078,4320.512695,4409.358887,4264.102539,4288.205078,4364.615234,3823.974365,5052.692383,4493.461426,4492.179688,4365.897461,4282.436035,4583.461426,173,2,45,,,,0,4,0,4,2,0,0,1,4,1,0,4,1,4,4,0,,,,,,,,,,,,,,,,,,,,,,,,,,,,,,,,,,,,,,,,,,,,,,,,,,,,,,,,,,,
1782732800,1782732800,190,0,4297.05127,4303.077148,4305.128418,4392.436035,4266.666504,4289.487305,4368.974121,3829.743652,5055.384766,4459.487305,4470.769043,4361.410156,4314.487305,4578.846191,2192,2,45,,,,0,4,0,4,2,0,0,1,4,1,0,4,1,4,4,0,,,,,,,,,,,,,,,,,,,,,,,,,,,,,,,,,,,,,,,,,,,,,,,,,,,,,,,,,,,
1782732800,1782732800,191,0,4287.94873,4303.205078,4290.512695,4378.333496,4268.589844,4293.205078,4366.410156,3836.025635,5050,4457.05127,4455.256348,4360,4341.282227,4560.641113,2770,2,45,,,,0,4,0,4,2,0,0,1,4,1,0,4,1,4,4,0,,,,,,,,,,,,,,,,,,,,,,,,,,,,,,,,,,,,,,,,,,,,,,,,,,,,,,,,,,,
1782732800,1782732800,192,0,4278.461426,4303.717773,4281.538574,4373.205078,4268.717773,4296.538574,4358.461426,3844.230713,5045.512695,4473.077148,4436.025879,4361.025879,4342.820313,4536.282227,2874,2,45,,,,0,4,0,4,2,0,0,1,4,1,0,4,1,4,4,0,,,,,,,,,,,,,,,,,,,,,,,,,,,,,,,,,,,,,,,,,,,,,,,,24,0,0.310999,-0.151917,0.700623,0.623962,-0.697351,0.782688,-0.07142,-39.622379,-51.812565,-9.733551
1782732800,1782732800,193,0,4266.666504,4304.871582,4275.641113,4374.102539,4266.922852,4297.436035,4349.358887,3853.718018,5050.897461,4480.384766,4406.153809,4361.922852,4317.94873,4516.153809,173,2,45,,,,0,4,0,4,2,0,0,1,4,1,0,4,1,4,4,0,,,,,,,,,,,,,,,,,,,,,,,,,,,,,,,,,,,,,,,,,,,,,,,,,,,,,,,,,,,
1782732800,1782732800,194,0,4252.820313,4306.794922,4269.230957,4374.615234,4264.358887,4296.282227,4342.436035,3862.692383,5068.205078,4457.820313,4375,4361.025879,4291.410156,4507.05127,2192,2,45,,,,0,4,0,4,2,0,0,1,4,1,0,4,1,4,4,0,,,,,,,,,,,,,,,,,,,,,,,,,,,,,,,,,,,,,,,,,,,,,,,,,,,,,,,,,,,
1782732800,1782732800,195,0,4242.692383,4308.589844,4263.205078,4371.922852,4263.333496,4295.256348,4339.487305,3870.384521,5091.025879,4405.256348,4363.333496,4359.358887,4298.461426,4508.846191,2770,2,45,,,,0,4,0,4,2,0,0,1,4,1,0,4,1,4,4,0,,,,,,,,,,,,,,,,,,,,,,,,,,,,,,,,,,,,,,,,,,,,,,,,,,,,,,,,,,,
1782732800,1782732800,196,0,4243.589844,4309.743652,4263.333496,4369.615234,4265.128418,4296.538574,4341.025879,3877.94873,5108.333496,4343.974121,4383.589844,4360,4356.025879,4516.282227,2874,2,45,,,,0,4,0,4,2,0,0,1,4,1,0,4,1,4,4,0,,,,,,,,,,,,,,,,,,,,,,,,,,,,,,,,,,,,,,,,,,,,,,,,,,,,,,,,,,,
1782732800,1782732800,197,0,4256.282227,4310,4274.102539,4372.94873,4270.128418,4299.615234,4347.307617,3887.435791,5112.563965,4302.179688,4426.538574,4364.743652,4445.512695,4522.94873,173,2,45,,,,0,4,0,4,2,0,0,1,4,1,0,4,1,4,4,0,,,,,,,,,,,,,,,,,,,,,,,,,,,,,,,,,,,,,,,,,,,,,,,,,,,,,,,,,,,
1782732800,1782732800,198,0,4272.94873,4309.358887,4292.563965,4383.589844,4276.025879,4301.922852,4356.922852,3899.230713,5104.102539,4296.153809,4467.307617,4372.563965,4521.025879,4525.256348,2192,2,45,,,,0,4,0,4,2,0,0,1,4,1,0,4,1,4,4,0,,,,,,,,,,,,,,,,,,,,,,,,,,,,,,,,,,,,,,,,,,,,,,,,,,,,,,,,,,,
1782732800,1782732800,199,0,4282.820313,4308.205078,4308.333496,4396.538574,4280.128418,4300.769043,4365.384766,3912.435791,5090.384766,4318.717773,4483.589844,4379.743652,4540.512695,4523.717773,2770,2,45,,,,0,4,0,4,2,0,0,1,4,1,0,4,1,4,4,0,,,,,,,,,,,,,,,,,,,,,,,,,,,,,,,,,,,,,,,,,,,,,,,,,,,,,,,,,,,
1782732800,1782732800,200,0,4280.128418,4307.307617,4311.538574,4402.563965,4280.512695,4296.153809,4366.538574,3926.281982,5080.641113,4346.282227,4472.94873,4383.461426,4494.230957,4521.025879,2874,2,45,,,,0,4,0,4,2,0,0,1,4,1,0,4,1,4,4,0,,,,,,,,,,,,,,,,,,,,,,,,,,,,,,,,,,,,,,,,,,,,,,,,25,0,0.323033,-0.145813,0.701721,0.618042,-0.675864,0.759248,-0.061165,-38.943474,-52.381306,-9.410196
1782732800,1782732800,201,0,4267.563965,4307.563965,4300.769043,4396.410156,4277.820313,4290.256348,4357.179688,3940.128174,5078.846191,4357.179688,4451.025879,4383.333496,4410,4518.974121,173,2,45,,,,0,4,0,4,2,0,0,1,4,1,0,4,1,4,4,0,,,,,,,,,,,,,,,,,,,,,,,,,,,,,,,,,,,,,,,,,,,,,,,,,,,,,,,,,,,
1782732800,1782732800,202,0,4253.077148,4309.102539,4283.205078,4381.282227,4274.743652,4286.666504,4340.384766,3953.333252,5081.410156,4347.94873,4437.820313,4382.179688,4331.410156,4516.794922,2192,2,45,,,,0,4,0,4,2,0,0,1,4,1,0,4,1,4,4,0,,,,,,,,,,,,,,,,,,,,,,,,,,,,,,,,,,,,,,,,,,,,,,,,,,,,,,,,,,,
1782732800,1782732800,203,0,4243.333496,4311.025879,4268.077148,4366.282227,4273.974121,4286.922852,4324.743652,3965.256348,5081.794922,4332.05127,4441.666504,4382.307617,4288.974121,4511.538574,2770,2,45,,,,0,4,0,4,2,0,0,1,4,1,0,4,1,4,4,0,,,,,,,,,,,,,,,,,,,,,,,,,,,,,,,,,,,,,,,,,,,,,,,,,,,,,,,,,,,
1782732800,1782732800,204,0,4240.384766,4312.05127,4260.128418,4360,4276.282227,4290.641113,4318.589844,3974.871826,5077.307617,4323.974121,4455.769043,4383.974121,4285.384766,4501.282227,2874,2,45,,,,0,4,0,4,2,0,0,1,4,1,0,4,1,4,4,0,,,,,,,,,,,,,,,,,,,,,,,,,,,,,,,,,,,,,,,,,,,,,,,,,,,,,,,,,,,
1782732800,1782732800,205,0,4241.794922,4310.897461,4258.205078,4364.871582,4280.128418,4295.256348,4324.230957,3982.307617,5071.282227,4326.153809,4464.102539,4385.384766,4301.153809,4487.820313,173,2,45,,,,0,4,0,4,2,0,0,1,4,1,0,4,1,4,4,0,,,,,,,,,,,,,,,,,,,,,,,,,,,,,,,,,,,,,,,,,,,,,,,,,,,,,,,,,,,
1782732800,1782732800,206,0,4244.358887,4308.205078,4258.333496,4376.922852,4282.692383,4298.205078,4336.025879,3989.358887,5069.230957,4331.025879,4454.615234,4385.256348,4313.333496,4475.769043,2192,2,45,,,,0,4,0,4,2,0,0,1,4,1,0,4,1,4,4,0,,,,,,,,,,,,,,,,,,,,,,,,,,,,,,,,,,,,,,,,,,,,,,,,,,,,,,,,,,,
1782732800,1782732800,207,0,4247.94873,4305.512695,4259.358887,4390,4282.307617,4298.717773,4344.230957,3998.205078,5073.333496,4331.538574,4429.358887,4384.102539,4313.333496,4470.128418,2770,2,45,,,,0,4,0,4,2,0,0,1,4,1,0,4,1,4,4,0,,,,,,,,,,,,,,,,,,,,,,,,,,,,,,,,,,,,,,,,,,,,,,,,,,,,,,,,,,,
1782732800,1782732800,208,0,4255.256348,4304.230957,4263.974121,4401.282227,4279.615234,4296.922852,4342.563965,4010.384521,5080.128418,4328.333496,4405.512695,4383.974121,4310.897461,4473.333496,2874,2,45,,,,0,4,0,4,2,0,0,1,4,1,0,4,1,4,4,0,,,,,,,,,,,,,,,,,,,,,,,,,,,,,,,,,,,,,,,,,,,,,,,,26,0,0.336651,-0.135132,0.703125,0.611572,-0.67684,0.728482,-0.045049,-38.182461,-52.993176,-9.069177
1782732800,1782732800,209,0,4269.487305,4305,4276.282227,4410.641113,4277.436035,4293.333496,4331.538574,4024.487061,5084.230957,4326.153809,4403.846191,4386.538574,4322.179688,4483.846191,173,2,45,,,,0,4,0,4,2,0,0,1,4,1,0,4,1,4,4,0,,,,,,,,,,,,,,,,,,,,,,,,,,,,,,,,,,,,,,,,,,,,,,,,,,,,,,,,,,,
1782732800,1782732800,210,0,4289.743652,4307.179688,4295.512695,4418.589844,4278.461426,4288.077148,4318.205078,4036.281982,5083.461426,4327.05127,4433.589844,4392.179688,4353.205078,4497.436035,2192,2,45,,,,0,4,0,4,2,0,0,1,4,1,0,4,1,4,4,0,,,,,,,,,,,,,,,,,,,,,,,,,,,,,,,,,,,,,,,,,,,,,,,,,,,,,,,,,,,
1782732800,1782732800,211,0,4310.128418,4309.615234,4315.384766,4422.307617,4282.563965,4281.410156,4309.487305,4041.281982,5079.230957,4329.102539,4482.820313,4399.230957,4392.307617,4509.358887,2770,2,45,,,,0,4,0,4,2,0,0,1,4,1,0,4,1,4,4,0,,,,,,,,,,,,,,,,,,,,,,,,,,,,,,,,,,,,,,,,,,,,,,,,,,,,,,,,,,,
1782732800,1782732800,212,0,4322.179688,4310.769043,4325.897461,4417.563965,4287.05127,4274.230957,4307.179688,4036.410156,5074.487305,4329.358887,4524.358887,4404.487305,4419.871582,4515.641113,2874,2,45,,,,0,4,0,4,2,0,0,1,4,1,0,4,1,4,4,0,,,,,,,,,,,,,,,,,,,,,,,,,,,,,,,,,,,,,,,,,,,,,,,,,,,,,,,,,,,
1782732800,1782732800,213,0,4320.512695,4310,4320.641113,4402.563965,4288.846191,4267.820313,4306.410156,4022.05127,5069.102539,4327.436035,4532.94873,4405.384766,4425.384766,4513.589844,173,2,45,,,,0,4,0,4,2,0,0,1,4,1,0,4,1,4,4,0,,,,,,,,,,,,,,,,,,,,,,,,,,,,,,,,,,,,,,,,,,,,,,,,,,,,,,,,,,,
1782732800,1782732800,214,0,4306.538574,4307.307617,4302.307617,4381.410156,4287.436035,4263.333496,4300.384766,4001.666748,5060.897461,4324.743652,4503.461426,4401.410156,4416.794922,4502.692383,2192,2,45,,,,0,4,0,4,2,0,0,1,4,1,0,4,1,4,4,0,,,,,,,,,,,,,,,,,,,,,,,,,,,,,,,,,,,,,,,,,,,,,,,,,,,,,,,,,,,
1782732800,1782732800,215,0,4289.743652,4304.230957,4282.692383,4363.846191,4284.871582,4260.641113,4287.563965,3981.538574,5050.256348,4322.94873,4455.641113,4394.487305,4412.692383,4487.05127,2770,2,45,,,,0,4,0,4,2,0,0,1,4,1,0,4,1,4,4,0,,,,,,,,,,,,,,,,,,,,,,,,,,,,,,,,,,,,,,,,,,,,,,,,,,,,,,,,,,,
1782732800,1782732800,216,0,4281.538574,4302.94873,4275,4359.358887,4283.461426,4259.358887,4272.436035,3968.333252,5040.897461,4322.692383,4420.769043,4387.820313,4426.922852,4474.871582,2874,2,45,,,,0,4,0,4,2,0,0,1,4,1,0,4,1,4,4,0,,,,,,,,,,,,,,,,,,,,,,,,,,,,,,,,,,,,,,,,,,,,,,,,27,0,0.343987,-0.128906,0.703918,0.60791,-0.699304,0.718227,-0.067025,-37.580883,-53.760525,-8.845592
1782732800,1782732800,217,0,4287.820313,4304.743652,4284.230957,4369.871582,4284.102539,4258.205078,4262.307617,3965.128174,5037.692383,4323.461426,4419.871582,4383.846191,4457.436035,4473.717773,173,2,45,,,,0,4,0,4,2,0,0,1,4,1,0,4,1,4,4,0,,,,,,,,,,,,,,,,,,,,,,,,,,,,,,,,,,,,,,,,,,,,,,,,,,,,,,,,,,,
1782732800,1782732800,218,0,4305,4308.205078,4303.589844,4386.025879,4285.641113,4255.769043,4260.769043,3969.615479,5041.025879,4324.230957,4449.102539,4383.461426,4488.461426,4485.256348,2192,2,45,,,,0,4,0,4,2,0,0,1,4,1,0,4,1,4,4,0,,,,,,,,,,,,,,,,,,,,,,,,,,,,,,,,,,,,,,,,,,,,,,,,,,,,,,,,,,,
1782732800,1782732800,219,0,4321.922852,4311.153809,4319.230957,4394.102539,4286.794922,4250.897461,4265.769043,3977.05127,5045.641113,4324.102539,4485.256348,4386.025879,4503.461426,4502.820313,2770,2,45,,,,0,4,0,4,2,0,0,1,4,1,0,4,1,4,4,0,,,,,,,,,,,,,,,,,,,,,,,,,,,,,,,,,,,,,,,,,,,,,,,,,,,,,,,,,,,
1782732800,1782732800,220,0,4328.205078,4311.666504,4322.94873,4386.538574,4287.05127,4243.205078,4271.538574,3982.820557,5045.641113,4323.333496,4504.743652,4389.358887,4496.922852,4514.615234,2874,2,45,,,,0,4,0,4,2,0,0,1,4,1,0,4,1,4,4,0,,,,,,,,,,,,,,,,,,,,,,,,,,,,,,,,,,,,,,,,,,,,,,,,,,,,,,,,,,,
1782732800,1782732800,221,0,4322.563965,4310,4317.05127,4367.820313,4287.436035,4233.717773,4272.563965,3986.666748,5038.974121,4323.589844,4500.384766,4391.922852,4478.205078,4512.179688,173,2,45,,,,0,4,0,4,2,0,0,1,4,1,0,4,1,4,4,0,,,,,,,,,,,,,,,,,,,,,,,,,,,,,,,,,,,,,,,,,,,,,,,,,,,,,,,,,,,
1782732800,1782732800,222,0,4312.179688,4307.820313,4311.025879,4349.871582,4289.230957,4224.358887,4266.794922,3990.769287,5029.102539,4326.153809,4482.307617,4393.205078,4462.820313,4494.871582,2192,2,45,,,,0,4,0,4,2,0,0,1,4,1,0,4,1,4,4,0,,,,,,,,,,,,,,,,,,,,,,,,,,,,,,,,,,,,,,,,,,,,,,,,,,,,,,,,,,,
1782732800,1782732800,223,0,4304.871582,4306.666504,4310.769043,4340.897461,4292.692383,4217.436035,4255.384766,3998.205078,5021.153809,4330.512695,4464.102539,4393.717773,4460.128418,4470.128418,2770,2,45,,,,0,4,0,4,2,0,0,1,4,1,0,4,1,4,4,0,,,,,,,,,,,,,,,,,,,,,,,,,,,,,,,,,,,,,,,,,,,,,,,,,,,,,,,,,,,
1782732800,1782732800,224,0,4301.025879,4307.05127,4312.820313,4339.487305,4296.025879,4213.717773,4241.153809,4008.718018,5018.974121,4333.717773,4450.384766,4393.846191,4465.641113,4447.179688,2874,2,45,,,,0,4,0,4,2,0,0,1,4,1,0,4,1,4,4,0,,,,,,,,,,,,,,,,,,,,,,,,,,,,,,,,,,,,,,,,,,,,,,,,28,0,0.354047,-0.118713,0.705444,0.602417,-0.67098,0.675253,-0.058723,-36.772793,-54.517807,-8.5777
1782732800,1782732800,225,0,4294.358887,4308.205078,4308.717773,4337.436035,4297.307617,4212.179688,4226.922852,4020,5023.333496,4332.94873,4437.05127,4393.589844,4466.538574,4432.436035,173,2,45,,,,0,4,0,4,2,0,0,1,4,1,0,4,1,4,4,0,,,,,,,,,,,,,,,,,,,,,,,,,,,,,,,,,,,,,,,,,,,,,,,,,,,,,,,,,,,
1782732800,1782732800,226,0,4280.897461,4308.846191,4294.487305,4328.974121,4296.282227,4210.641113,4214.743652,4029.487061,5032.692383,4326.922852,4420.384766,4392.436035,4453.846191,4426.153809,2192,2,45,,,,0,4,0,4,2,0,0,1,4,1,0,4,1,4,4,0,,,,,,,,,,,,,,,,,,,,,,,,,,,,,,,,,,,,,,,,,,,,,,,,,,,,,,,,,,,
1782732800,1782732800,227,0,4265.256348,4307.94873,4276.025879,4316.410156,4295,4207.179688,4205.897461,4037.692383,5045.769043,4317.05127,4404.615234,4391.025879,4431.922852,4426.025879,2770,2,45,,,,0,4,0,4,2,0,0,1,4,1,0,4,1,4,4,0,,,,,,,,,,,,,,,,,,,,,,,,,,,,,,,,,,,,,,,,,,,,,,,,,,,,,,,,,,,
1782732800,1782732800,228,0,4257.820313,4305.512695,4264.615234,4307.179688,4295.384766,4201.153809,4200.384766,4046.281982,5060.384766,4306.538574,4399.358887,4390.256348,4415.512695,4429.615234,2874,2,45,,,,0,4,0,4,2,0,0,1,4,1,0,4,1,4,4,0,,,,,,,,,,,,,,,,,,,,,,,,,,,,,,,,,,,,,,,,,,,,,,,,,,,,,,,,,,,
1782732800,1782732800,229,0,4265.769043,4302.563965,4267.94873,4307.307617,4297.563965,4195.128418,4197.179688,4055.769287,5072.179688,4298.717773,4409.871582,4391.282227,4418.333496,4436.410156,173,2,45,,,,0,4,0,4,2,0,0,1,4,1,0,4,1,4,4,0,,,,,,,,,,,,,,,,,,,,,,,,,,,,,,,,,,,,,,,,,,,,,,,,,,,,,,,,,,,
1782732800,1782732800,230,0,4285.897461,4301.025879,4283.589844,4315.384766,4299.615234,4192.692383,4195.641113,4065,5076.025879,4294.615234,4428.846191,4394.102539,4441.794922,4444.871582,2192,2,45,,,,0,4,0,4,2,0,0,1,4,1,0,4,1,4,4,0,,,,,,,,,,,,,,,,,,,,,,,,,,,,,,,,,,,,,,,,,,,,,,,,,,,,,,,,,,,
1782732800,1782732800,231,0,4306.922852,4302.436035,4301.153809,4322.94873,4299.358887,4196.025879,4193.974121,4072.564209,5069.615234,4292.820313,4441.922852,4397.179688,4474.615234,4451.410156,2770,2,45,,,,0,4,0,4,2,0,0,1,4,1,0,4,1,4,4,0,,,,,,,,,,,,,,,,,,,,,,,,,,,,,,,,,,,,,,,,,,,,,,,,,,,,,,,,,,,
1782732800,1782732800,232,0,4317.820313,4306.153809,4310.384766,4321.538574,4297.05127,4203.205078,4191.025879,4077.435791,5055.897461,4290.256348,4440,4398.974121,4501.410156,4451.410156,2874,2,45,,,,0,4,0,4,2,0,0,1,4,1,0,4,1,4,4,0,,,,,,,,,,,,,,,,,,,,,,,,,,,,,,,,,,,,,,,,,,,,,,,,29,0,0.357948,-0.114624,0.705505,0.60083,-0.720303,0.729948,-0.056281,-36.045513,-55.19936,-8.303263
1782732800,1782732800,233,0,4316.922852,4310.128418,4310,4307.94873,4294.358887,4210,4186.282227,4080.256348,5040.769043,4284.871582,4429.102539,4399.230957,4511.922852,4443.717773,173,2,45,,,,0,4,0,4,2,0,0,1,4,1,0,4,1,4,4,0,,,,,,,,,,,,,,,,,,,,,,,,,,,,,,,,,,,,,,,,,,,,,,,,,,,,,,,,,,,
1782732800,1782732800,234,0,4312.307617,4312.307617,4307.563965,4287.179688,4292.436035,4213.333496,4181.282227,4082.820557,5029.871582,4277.436035,4424.871582,4399.102539,4506.410156,4433.461426,2192,2,45,,,,0,4,0,4,2,0,0,1,4,1,0,4,1,4,4,0,,,,,,,,,,,,,,,,,,,,,,,,,,,,,,,,,,,,,,,,,,,,,,,,,,,,,,,,,,,
1782732800,1782732800,235,0,4314.358887,4311.666504,4312.179688,4267.05127,4291.538574,4212.94873,4179.102539,4086.794922,5025.769043,4270.384766,4438.461426,4399.871582,4492.307617,4429.102539,2770,2,45,,,,0,4,0,4,2,0,0,1,4,1,0,4,1,4,4,0,,,,,,,,,,,,,,,,,,,,,,,,,,,,,,,,,,,,,,,,,,,,,,,,,,,,,,,,,,,
1782732800,1782732800,236,0,4326.282227,4308.589844,4325.256348,4251.153809,4291.538574,4211.025879,4181.025879,4091.923096,5027.05127,4266.025879,4465.512695,4401.410156,4477.436035,4435.897461,2874,2,45,,,,0,4,0,4,2,0,0,1,4,1,0,4,1,4,4,0,,,,,,,,,,,,,,,,,,,,,,,,,,,,,,,,,,,,,,,,,,,,,,,,,,,,,,,,,,,
1782732800,1782732800,237,0,4341.538574,4304.487305,4339.230957,4236.666504,4292.94873,4210.512695,4185.897461,4096.538574,5029.743652,4265.128418,4489.102539,4401.794922,4465.128418,4450.769043,173,2,45,,,,0,4,0,4,2,0,0,1,4,1,0,4,1,4,4,0,,,,,,,,,,,,,,,,,,,,,,,,,,,,,,,,,,,,,,,,,,,,,,,,,,,,,,,,,,,
1782732800,1782732800,238,0,4349.230957,4301.025879,4344.615234,4217.563965,4296.538574,4212.692383,4191.282227,4099.358887,5029.743652,4266.282227,4494.358887,4399.358887,4451.666504,4464.358887,2192,2,45,,,,0,4,0,4,2,0,0,1,4,1,0,4,1,4,4,0,,,,,,,,,,,,,,,,,,,,,,,,,,,,,,,,,,,,,,,,,,,,,,,,,,,,,,,,,,,
1782732800,1782732800,239,0,4344.102539,4299.615234,4337.563965,4192.179688,4302.563965,4216.666504,4196.025879,4101.282227,5026.153809,4267.307617,4479.871582,4393.846191,4430.384766,4467.05127,2770,2,45,,,,0,4,0,4,2,0,0,1,4,1,0,4,1,4,4,0,,,,,,,,,,,,,,,,,,,,,,,,,,,,,,,,,,,,,,,,,,,,,,,,,,,,,,,,,,,
1782732800,1782732800,240,0,4329.871582,4300.897461,4322.820313,4165.256348,4310.256348,4219.871582,4200.512695,4104.487305,5021.282227,4266.025879,4457.436035,4386.666504,4397.820313,4456.666504,2874,2,45,,,,0,4,0,4,2,0,0,1,4,1,0,4,1,4,4,0,,,,,,,,,,,,,,,,,,,,,,,,,,,,,,,,,,,,,,,,,,,,,,,,30,0,0.359585,-0.111084,0.705811,0.600159,-0.715908,0.759736,-0.07435,-35.340961,-55.779423,-7.95627
1782732800,1782732800,241,0,4316.666504,4303.333496,4309.102539,4144.358887,4318.077148,4220.512695,4205.512695,4109.358887,5019.871582,4260.769043,4442.05127,4380.641113,4359.487305,4440.512695,173,2,45,,,,0,4,0,4,2,0,0,1,4,1,0,4,1,4,4,0,,,,,,,,,,,,,,,,,,,,,,,,,,,,,,,,,,,,,,,,,,,,,,,,,,,,,,,,,,,
1782732800,1782732800,242,0,4314.871582,4305,4303.589844,4134.871582,4324.743652,4218.589844,4210.641113,4113.461426,5024.615234,4251.025879,4441.153809,4378.589844,4327.179688,4431.410156,2192,2,45,,,,0,4,0,4,2,0,0,1,4,1,0,4,1,4,4,0,1,0,1,0,1,1,0,0,1,1,0,0,0,1,0,1,,,,,,,,,,,,,,,,,,,,,,,,,,,,,,,,,,,,,,,,,,,
1782732800,1782732801,243,0,4327.692383,4305,4308.077148,4137.307617,4328.974121,4216.410156,4214.743652,4112.94873,5033.333496,4238.333496,4451.025879,4380.256348,4311.538574,4436.410156,2770,2,45,,,,0,4,0,4,2,0,0,1,4,1,0,4,1,4,4,0,,,,,,,,,,,,,,,,,,,,,,,,,,,,,,,,,,,,,,,,,,,,,,,,,,,,,,,,,,,
1782732801,1782732801,244,0,4349.102539,4303.846191,4319.487305,4147.179688,4330.384766,4216.666504,4217.05127,4106.922852,5038.205078,4226.153809,4462.692383,4383.589844,4313.205078,4450,2874,2,45,,,,0,4,0,4,2,0,0,1,4,1,0,4,1,4,4,0,,,,,,,,,,,,,,,,,,,,,,,,,,,,,,,,,,,,,,,,,,,,,,,,,,,,,,,,,,,
1782732801,1782732801,245,0,4367.307617,4302.820313,4331.025879,4157.307617,4328.974121,4220.641113,4217.94873,4097.94873,5029.615234,4217.563965,4470.512695,4386.410156,4320.641113,4458.717773,173,2,45,,,,0,4,0,4,2,0,0,1,4,1,0,4,1,4,4,0,,,,,,,,,,,,,,,,,,,,,,,,,,,,,,,,,,,,,,,,,,,,,,,,,,,,,,,,,,,
1782732801,1782732801,246,0,4372.436035,4302.820313,4336.410156,4160.897461,4326.282227,4227.563965,4218.333496,4090.384521,5001.025879,4214.358887,4474.230957,4387.307617,4318.846191,4452.563965,2192,2,45,,,,0,4,0,4,2,0,0,1,4,1,0,4,1,4,4,0,,,,,,,,,,,,,,,,,,,,,,,,,,,,,,,,,,,,,,,,,,,,,,,,,,,,,,,,,,,
1782732801,1782732801,247,0,4361.538574,4303.974121,4331.538574,4154.230957,4324.102539,4234.487305,4218.589844,4086.153809,4954.230957,4215.512695,4475.128418,4386.666504,4301.025879,4432.692383,2770,2,45,,,,0,4,0,4,2,0,0,1,4,1,0,4,1,4,4,0,,,,,,,,,,,,,,,,,,,,,,,,,,,,,,,,,,,,,,,,,,,,,,,,,,,,,,,,,,,
1782732801,1782732801,248,0,4339.615234,4305.897461,4316.794922,4138.077148,4323.589844,4239.230957,4218.589844,4083.846191,4899.487305,4217.820313,4473.077148,4384.871582,4274.871582,4409.871582,2874,2,45,,,,0,4,0,4,2,0,0,1,4,1,0,4,1,4,4,0,,,,,,,,,,,,,,,,,,,,,,,,,,,,,,,,,,,,,,,,,,,,,,,,31,0,0.358453,-0.107605,0.706665,0.600464,-0.713466,0.724087,-0.050421,-34.923534,-56.334812,-7.57731
1782732801,1782732801,249,0,4316.922852,4308.077148,4296.666504,4118.846191,4324.615234,4241.922852,4218.077148,4080.641113,4851.410156,4218.205078,4466.666504,4382.179688,4256.410156,4397.307617,173,2,45,,,,0,4,0,4,2,0,0,1,4,1,0,4,1,4,4,0,,,,,,,,,,,,,,,,,,,,,,,,,,,,,,,,,,,,,,,,,,,,,,,,,,,,,,,,,,,
1782732801,1782732801,250,0,4304.102539,4310.256348,4279.230957,4105,4326.666504,4244.102539,4217.05127,4075.641113,4821.153809,4216.666504,4456.666504,4379.102539,4256.538574,4401.410156,2192,2,45,,,,0,4,0,4,2,0,0,1,4,1,0,4,1,4,4,0,,,,,,,,,,,,,,,,,,,,,,,,,,,,,,,,,,,,,,,,,,,,,,,,,,,,,,,,,,,
1782732801,1782732801,251,0,4305.384766,4311.410156,4271.538574,4101.410156,4328.974121,4247.179688,4215.512695,4070.769287,4810.641113,4216.153809,4445.256348,4376.538574,4272.563965,4419.358887,2770,2,45,,,,0,4,0,4,2,0,0,1,4,1,0,4,1,4,4,0,,,,,,,,,,,,,,,,,,,,,,,,,,,,,,,,,,,,,,,,,,,,,,,,,,,,,,,,,,,
1782732801,1782732801,252,0,4316.794922,4310.256348,4274.230957,4104.871582,4330.641113,4250.897461,4213.589844,4067.820557,4812.179688,4219.615234,4436.153809,4375.384766,4292.307617,4441.153809,2874,2,45,,,,0,4,0,4,2,0,0,1,4,1,0,4,1,4,4,0,,,,,,,,,,,,,,,,,,,,,,,,,,,,,,,,,,,,,,,,,,,,,,,,,,,,,,,,,,,
1782732801,1782732801,253,0,4329.102539,4307.05127,4281.282227,4108.333496,4331.025879,4254.615234,4212.05127,4067.435791,4814.615234,4226.794922,4434.615234,4375.769043,4306.666504,4457.692383,173,2,45,,,,0,4,0,4,2,0,0,1,4,1,0,4,1,4,4,0,,,,,,,,,,,,,,,,,,,,,,,,,,,,,,,,,,,,,,,,,,,,,,,,,,,,,,,,,,,
1782732801,1782732801,254,0,4335.897461,4303.461426,4285.512695,4106.922852,4330.769043,4258.333496,4211.922852,4068.974365,4810.897461,4233.205078,4444.871582,4377.436035,4319.358887,4467.563965,2192,2,45,,,,0,4,0,4,2,0,0,1,4,1,0,4,1,4,4,0,,,,,,,,,,,,,,,,,,,,,,,,,,,,,,,,,,,,,,,,,,,,,,,,,,,,,,,,,,,
1782732801,1782732801,255,0,4338.589844,4301.794922,4285.128418,4102.307617,4330.128418,4261.794922,4214.358887,4071.538574,4802.563965,4233.846191,4466.666504,4379.871582,4341.666504,4477.179688,45,2,45,,,,0,4,0,4,2,0,0,1,4,1,0,4,1,4,4,0,,,,,,,,,,,,,,,,,,,,,,,,,,,,,,,,,,,,,,,,,,,,,,,,,,,,,,,,,,,
1782732801,1782732801,0,0,4344.102539,4302.820313,4285.128418,4100.512695,4329.487305,4265,4219.487305,4074.487061,4796.025879,4226.538574,4493.717773,4383.461426,4377.563965,4494.102539,2276,2,45,,,,0,4,0,4,2,0,0,1,4,1,0,4,1,4,4,0,,,,,,,,,,,,,,,,,,,,,,,,,,,,,,,,,,,,,,,,,,,,,,,,0,0,0.355851,-0.105591,0.706726,0.602295,-0.653888,0.78513,-0.042119,-34.447845,-56.967999,-7.252912
1782732801,1782732801,1,0,4357.436035,4305.769043,4292.563965,4105,4328.589844,4267.179688,4226.282227,4078.461426,4795.512695,4215.128418,4517.05127,4388.717773,4415.641113,4518.846191,1028,2,45,,,,0,4,0,4,2,0,0,1,4,1,0,4,1,4,4,0,,,,,,,,,,,,,,,,,,,,,,,,,,,,,,,,,,,,,,,,,,,,,,,,,,,,,,,,,,,
1782732801,1782732801,2,0,4376.410156,4308.589844,4308.589844,4114.871582,4326.922852,4267.436035,4233.589844,4083.974365,4798.846191,4207.307617,4530.512695,4394.871582,4432.820313,4543.333496,2548,2,45,,,,0,4,0,4,2,0,0,1,4,1,0,4,1,4,4,0,,,,,,,,,,,,,,,,,,,,,,,,,,,,,,,,,,,,,,,,,,,,,,,,,,,,,,,,,,,
1782732801,1782732801,3,0,4391.922852,4310.128418,4326.410156,4124.487305,4325.256348,4265.512695,4239.871582,4090.512939,4801.410156,4208.846191,4532.563965,4399.615234,4412.307617,4555.769043,0,2,45,,,,0,4,0,4,2,0,0,1,4,1,0,4,1,4,4,0,,,,,,,,,,,,,,,,,,,,,,,,,,,,,,,,,,,,,,,,,,,,,,,,,,,,,,,,,,,
1782732801,1782732801,4,0,4394.487305,4309.743652,4334.615234,4128.846191,4324.358887,4263.077148,4244.102539,4096.538574,4801.538574,4216.538574,4525.384766,4400.897461,4358.461426,4548.974121,0,2,45,,,,0,4,0,4,2,0,0,1,4,1,0,4,1,4,4,0,,,,,,,,,,,,,,,,,,,,,,,,,,,,,,,,,,,,,,,,,,,,,,,,,,,,,,,,,,,
1782732801,1782732801,5,0,4380.641113,4308.461426,4326.282227,4126.538574,4325,4262.179688,4246.922852,4100,4803.077148,4218.589844,4513.717773,4397.94873,4297.820313,4526.282227,0,2,45,,,,0,4,0,4,2,0,0,1,4,1,0,4,1,4,4,0,,,,,,,,,,,,,,,,,,,,,,,,,,,,,,,,,,,,,,,,,,,,,,,,,,,,,,,,,,,
1782732801,1782732801,6,0,4356.025879,4306.922852,4304.743652,4121.794922,4326.794922,4265,4249.230957,4099.487305,4810.769043,4204.358887,4503.077148,4393.077148,4262.05127,4499.615234,475,2,45,,,,0,4,0,4,2,0,0,1,4,1,0,4,1,4,4,0,,,,,,,,,,,,,,,,,,,,,,,,,,,,,,,,,,,,,,,,,,,,,,,,,,,,,,,,,,,
1782732801,1782732801,7,0,4331.922852,4306.025879,4281.025879,4119.487305,4328.333496,4271.410156,4250.769043,4096.025879,4824.871582,4178.333496,4496.282227,4388.974121,4265.512695,4481.666504,1554,2,45,,,,0,4,0,4,2,0,0,1,4,1,0,4,1,4,4,0,,,,,,,,,,,,,,,,,,,,,,,,,,,,,,,,,,,,,,,,,,,,,,,,,,,,,,,,,,,
1782732801,1782732801,8,0,4318.077148,4306.025879,4265.641113,4120.641113,4328.974121,4279.615234,4250.897461,4093.974365,4839.487305,4161.025879,4492.94873,4386.922852,4297.820313,4478.974121,167,2,45,,,,0,4,0,4,2,0,0,1,4,1,0,4,1,4,4,0,,,,,,,,,,,,,,,,,,,,,,,,,,,,,,,,,,,,,,,,,,,,,,,,1,0,0,-0.002014,1.583862,1.490784,-0.617751,0.753388,-0.020144,37.263603,-54.404533,-12.427621
1782732801,1782732801,9,0,4318.333496,4306.666504,4263.205078,4122.307617,4328.846191,4287.307617,4249.358887,4098.205078,4846.153809,4175.641113,4491.538574,4386.922852,4335.641113,4491.153809,0,2,45,,,,0,4,0,4,2,0,0,1,4,1,0,4,1,4,4,0,,,,,,,,,,,,,,,,,,,,,,,,,,,,,,,,,,,,,,,,,,,,,,,,,,,,,,,,,,,
1782732801,1782732801,10,0,4330.512695,4307.563965,4271.666504,4122.692383,4328.717773,4292.94873,4248.205078,4108.205078,4840.128418,4228.333496,4494.230957,4387.692383,4361.410156,4512.563965,2191,2,45,,,,0,4,0,4,2,0,0,1,4,1,0,4,1,4,4,0,,,,,,,,,,,,,,,,,,,,,,,,,,,,,,,,,,,,,,,,,,,,,,,,,,,,,,,,,,,
1782732801,1782732801,11,0,4347.05127,4308.333496,4283.974121,4122.179688,4328.846191,4296.538574,4249.743652,4116.025879,4823.205078,4300.769043,4504.102539,4388.205078,4373.077148,4533.333496,2859,2,45,,,,0,4,0,4,2,0,0,1,4,1,0,4,1,4,4,0,,,,,,,,,,,,,,,,,,,,,,,,,,,,,,,,,,,,,,,,,,,,,,,,,,,,,,,,,,,
1782732801,1782732801,12,0,4358.205078,4308.461426,4291.538574,4122.94873,4329.102539,4299.102539,4254.615234,4110.641113,4802.94873,4360.512695,4519.871582,4387.94873,4377.179688,4543.461426,2849,2,45,,,,0,4,0,4,2,0,0,1,4,1,0,4,1,4,4,0,,,,,,,,,,,,,,,,,,,,,,,,,,,,,,,,,,,,,,,,,,,,,,,,,,,,,,,,,,,
1782732801,1782732801,13,0,4357.692383,4307.94873,4289.487305,4126.282227,4329.358887,4301.282227,4260.256348,4086.281982,4789.230957,4380.512695,4533.077148,4386.153809,4379.871582,4537.692383,175,2,45,,,,0,4,0,4,2,0,0,1,4,1,0,4,1,4,4,0,,,,,,,,,,,,,,,,,,,,,,,,,,,,,,,,,,,,,,,,,,,,,,,,,,,,,,,,,,,
1782732801,1782732801,14,0,4347.436035,4306.794922,4280.641113,4130.897461,4330.128418,4303.333496,4263.589844,4047.435791,4787.436035,4355.384766,4534.487305,4382.05127,4383.717773,4519.487305,2191,2,45,,,,0,4,0,4,2,0,0,1,4,1,0,4,1,4,4,0,,,,,,,,,,,,,,,,,,,,,,,,,,,,,,,,,,,,,,,,,,,,,,,,,,,,,,,,,,,
1782732801,1782732801,15,0,4336.410156,4305.384766,4273.717773,4134.743652,4331.922852,4304.358887,4263.205078,4007.05127,4796.153809,4303.846191,4523.974121,4375.384766,4391.025879,4500,2859,2,45,,,,0,4,0,4,2,0,0,1,4,1,0,4,1,4,4,0,,,,,,,,,,,,,,,,,,,,,,,,,,,,,,,,,,,,,,,,,,,,,,,,,,,,,,,,,,,
1782732801,1782732801,16,0,4333.461426,4304.230957,4275.769043,4135.897461,4334.487305,4304.102539,4260.641113,3979.102539,4807.05127,4257.307617,4511.153809,4367.563965,4404.615234,4489.487305,2849,2,45,,,,0,4,0,4,2,0,0,1,4,1,0,4,1,4,4,0,,,,,,,,,,,,,,,,,,,,,,,,,,,,,,,,,,,,,,,,,,,,,,,,2,0,0.348436,-0.099854,0.705078,0.609497,-0.622635,0.744109,0.000855,30.520578,-54.980747,-11.818192
1782732801,1782732801,17,0,4339.743652,4304.102539,4286.025879,4135.128418,4336.410156,4302.692383,4258.846191,3969.743652,4810.897461,4240.128418,4507.307617,4360.384766,4425.128418,4490.769043,175,2,45,,,,0,4,0,4,2,0,0,1,4,1,0,4,1,4,4,0,,,,,,,,,,,,,,,,,,,,,,,,,,,,,,,,,,,,,,,,,,,,,,,,,,,,,,,,,,,
1782732801,1782732801,18,0,4348.461426,4304.871582,4296.282227,4135.512695,4336.666504,4301.025879,4259.230957,3975,4803.717773,4255.641113,4513.974121,4355.512695,4449.358887,4497.436035,2191,2,45,,,,0,4,0,4,2,0,0,1,4,1,0,4,1,4,4,0,,,,,,,,,,,,,,,,,,,,,,,,,,,,,,,,,,,,,,,,,,,,,,,,,,,,,,,,,,,
1782732801,1782732801,19,0,4350.256348,4305.384766,4297.563965,4139.487305,4334.615234,4298.846191,4260.641113,3984.487061,4789.102539,4286.794922,4520,4353.205078,4470.512695,4497.94873,2859,2,45,,,,0,4,0,4,2,0,0,1,4,1,0,4,1,4,4,0,,,,,,,,,,,,,,,,,,,,,,,,,,,,,,,,,,,,,,,,,,,,,,,,,,,,,,,,,,,
1782732801,1782732801,20,0,4340,4304.743652,4286.282227,4146.794922,4330.769043,4296.025879,4260.256348,3989.102539,4774.487305,4308.846191,4511.666504,4351.538574,4482.05127,4484.615234,2849,2,45,,,,0,4,0,4,2,0,0,1,4,1,0,4,1,4,4,0,,,,,,,,,,,,,,,,,,,,,,,,,,,,,,,,,,,,,,,,,,,,,,,,,,,,,,,,,,,
1782732801,1782732801,21,0,4320.128418,4303.589844,4266.794922,4154.102539,4326.922852,4292.307617,4256.922852,3987.94873,4765.641113,4306.153809,4486.153809,4349.358887,4481.666504,4460.384766,175,2,45,,,,0,4,0,4,2,0,0,1,4,1,0,4,1,4,4,0,,,,,,,,,,,,,,,,,,,,,,,,,,,,,,,,,,,,,,,,,,,,,,,,,,,,,,,,,,,
1782732801,1782732801,22,0,4298.461426,4303.589844,4248.077148,4158.205078,4324.871582,4288.333496,4252.307617,3985.897461,4763.077148,4279.487305,4455.128418,4346.282227,4472.820313,4437.692383,2191,2,45,,,,0,4,0,4,2,0,0,1,4,1,0,4,1,4,4,0,,,,,,,,,,,,,,,,,,,,,,,,,,,,,,,,,,,,,,,,,,,,,,,,,,,,,,,,,,,
1782732801,1782732801,23,0,4282.692383,4305.769043,4237.94873,4156.922852,4325.512695,4284.358887,4249.487305,3988.461426,4764.230957,4242.179688,4435.512695,4343.717773,4462.94873,4429.358887,2859,2,45,,,,0,4,0,4,2,0,0,1,4,1,0,4,1,4,4,0,,,,,,,,,,,,,,,,,,,,,,,,,,,,,,,,,,,,,,,,,,,,,,,,,,,,,,,,,,,
1782732801,1782732801,24,0,4275.641113,4309.487305,4237.94873,4150.384766,4327.692383,4281.025879,4250.128418,3995.897461,4765.256348,4210.641113,4436.666504,4343.077148,4459.743652,4438.205078,2849,2,45,,,,0,4,0,4,2,0,0,1,4,1,0,4,1,4,4,0,,,,,,,,,,,,,,,,,,,,,,,,,,,,,,,,,,,,,,,,,,,,,,,,3,0,0.344573,-0.099182,0.703735,0.613342,-0.593334,0.790013,-0.007936,24.218519,-55.432671,-11.169706
1782732801,1782732801,25,0,4275.512695,4312.820313,4244.358887,4141.282227,4329.487305,4278.333496,4253.077148,4004.871826,4763.846191,4194.743652,4455.384766,4344.487305,4467.179688,4456.025879,175,2,45,,,,0,4,0,4,2,0,0,1,4,1,0,4,1,4,4,0,,,,,,,,,,,,,,,,,,,,,,,,,,,,,,,,,,,,,,,,,,,,,,,,,,,,,,,,,,,
1782732801,1782732801,26,0,4278.846191,4313.589844,4251.153809,4133.846191,4328.589844,4276.794922,4254.102539,4012.05127,4759.615234,4195.641113,4480.512695,4347.307617,4482.436035,4471.153809,2191,2,45,,,,0,4,0,4,2,0,0,1,4,1,0,4,1,4,4,0,,,,,,,,,,,,,,,,,,,,,,,,,,,,,,,,,,,,,,,,,,,,,,,,,,,,,,,,,,,
1782732801,1782732801,27,0,4282.05127,4311.153809,4254.743652,4131.922852,4326.025879,4276.538574,4250,4018.205078,4754.102539,4207.436035,4501.153809,4350,4497.179688,4476.666504,2859,2,45,,,,0,4,0,4,2,0,0,1,4,1,0,4,1,4,4,0,,,,,,,,,,,,,,,,,,,,,,,,,,,,,,,,,,,,,,,,,,,,,,,,,,,,,,,,,,,
1782732801,1782732801,28,0,4282.820313,4306.794922,4255.769043,4136.666504,4324.743652,4276.922852,4240.512695,4026.025635,4750.128418,4219.743652,4512.307617,4351.794922,4502.179688,4473.589844,2849,2,45,,,,0,4,0,4,2,0,0,1,4,1,0,4,1,4,4,0,,,,,,,,,,,,,,,,,,,,,,,,,,,,,,,,,,,,,,,,,,,,,,,,,,,,,,,,,,,
1782732801,1782732801,29,0,4280.641113,4302.563965,4256.922852,4145.512695,4327.563965,4277.05127,4228.717773,4035.769287,4748.846191,4224.102539,4516.025879,4352.820313,4493.974121,4468.974121,175,2,45,,,,0,4,0,4,2,0,0,1,4,1,0,4,1,4,4,0,,,,,,,,,,,,,,,,,,,,,,,,,,,,,,,,,,,,,,,,,,,,,,,,,,,,,,,,,,,
1782732801,1782732801,30,0,4276.666504,4300.128418,4259.102539,4153.717773,4334.743652,4275.897461,4218.974121,4043.718018,4749.102539,4218.589844,4515.769043,4353.846191,4475.384766,4468.461426,2191,2,45,,,,0,4,0,4,2,0,0,1,4,1,0,4,1,4,4,0,,,,,,,,,,,,,,,,,,,,,,,,,,,,,,,,,,,,,,,,,,,,,,,,,,,,,,,,,,,
1782732801,1782732801,31,0,4271.666504,4300.128418,4259.102539,4156.794922,4343.846191,4272.820313,4214.230957,4046.153809,4748.205078,4207.94873,4511.666504,4355,4451.922852,4472.436035,2859,2,45,,,,0,4,0,4,2,0,0,1,4,1,0,4,1,4,4,0,,,,,,,,,,,,,,,,,,,,,,,,,,,,,,,,,,,,,,,,,,,,,,,,,,,,,,,,,,,
1782732801,1782732801,32,0,4266.282227,4302.436035,4253.205078,4154.102539,4351.410156,4268.205078,4214.102539,4043.461426,4745,4199.230957,4502.436035,4355.769043,4428.717773,4476.025879,0,2,45,,,,0,4,0,4,2,0,0,1,4,1,0,4,1,4,4,0,,,,,,,,,,,,,,,,,,,,,,,,,,,,,,,,,,,,,,,,,,,,,,,,4,0,0.339325,-0.096863,0.701904,0.618713,-0.577707,0.8115,0.018435,18.680002,-55.806072,-10.702736
1782732801,1782732801,33,0,4262.436035,4305.384766,4243.077148,4150.384766,4355.897461,4263.717773,4215.897461,4040.384521,4740,4195.897461,4491.153809,4355.769043,4410.512695,4475.769043,0,2,45,,,,0,4,0,4,2,0,0,1,4,1,0,4,1,4,4,0,,,,,,,,,,,,,,,,,,,,,,,,,,,,,,,,,,,,,,,,,,,,,,,,,,,,,,,,,,,
1782732801,1782732801,34,0,4264.358887,4307.05127,4237.179688,4152.179688,4357.94873,4261.538574,4216.922852,4041.538574,4734.358887,4197.05127,4486.922852,4355.384766,4402.307617,4473.974121,0,2,45,,,,0,4,0,4,2,0,0,1,4,1,0,4,1,4,4,0,,,,,,,,,,,,,,,,,,,,,,,,,,,,,,,,,,,,,,,,,,,,,,,,,,,,,,,,,,,
1782732801,1782732801,35,0,4274.487305,4306.410156,4243.846191,4162.05127,4359.230957,4262.692383,4214.871582,4048.205078,4727.94873,4199.615234,4497.05127,4356.282227,4405.769043,4475.769043,0,2,45,,,,0,4,0,4,2,0,0,1,4,1,0,4,1,4,4,0,,,,,,,,,,,,,,,,,,,,,,,,,,,,,,,,,,,,,,,,,,,,,,,,,,,,,,,,,,,
1782732801,1782732801,36,0,4288.589844,4304.615234,4262.692383,4174.615234,4360.256348,4265.769043,4210.128418,4057.307617,4720.384766,4201.794922,4517.05127,4359.743652,4414.743652,4481.794922,0,2,45,,,,0,4,0,4,2,0,0,1,4,1,0,4,1,4,4,0,,,,,,,,,,,,,,,,,,,,,,,,,,,,,,,,,,,,,,,,,,,,,,,,,,,,,,,,,,,
1782732801,1782732801,37,0,4296.282227,4303.717773,4282.436035,4179.871582,4360.641113,4268.077148,4204.230957,4064.871826,4712.179688,4203.077148,4530.512695,4364.358887,4417.94873,4484.871582,0,2,45,,,,0,4,0,4,2,0,0,1,4,1,0,4,1,4,4,0,,,,,,,,,,,,,,,,,,,,,,,,,,,,,,,,,,,,,,,,,,,,,,,,,,,,,,,,,,,
1782732801,1782732801,38,0,4288.846191,4305,4289.871582,4171.410156,4359.487305,4267.820313,4199.743652,4068.846191,4704.615234,4203.077148,4522.94873,4367.436035,4407.436035,4476.282227,0,2,45,,,,0,4,0,4,2,0,0,1,4,1,0,4,1,4,4,0,,,,,,,,,,,,,,,,,,,,,,,,,,,,,,,,,,,,,,,,,,,,,,,,,,,,,,,,,,,
1782732801,1782732801,39,0,4266.794922,4307.820313,4279.871582,4152.820313,4357.05127,4265.384766,4198.205078,4070.256348,4698.333496,4201.922852,4494.871582,4367.179688,4385.128418,4456.282227,0,2,45,,,,0,4,0,4,2,0,0,1,4,1,0,4,1,4,4,0,,,,,,,,,,,,,,,,,,,,,,,,,,,,,,,,,,,,,,,,,,,,,,,,,,,,,,,,,,,
1782732801,1782732801,40,0,4241.538574,4310.128418,4259.102539,4134.743652,4355.256348,4263.846191,4199.102539,4072.820557,4692.94873,4201.153809,4463.589844,4365,4360.769043,4435.256348,0,2,45,,,,0,4,0,4,2,0,0,1,4,1,0,4,1,4,4,0,,,,,,,,,,,,,,,,,,,,,,,,,,,,,,,,,,,,,,,,,,,,,,,,5,0,0.337173,-0.094727,0.700806,0.62146,-0.579661,0.79978,0.017458,13.812001,-55.975464,-10.082462
1782732801,1782732801,41,0,4227.05127,4310.128418,4241.153809,4127.94873,4355.384766,4265.641113,4200.897461,4079.102539,4687.436035,4201.794922,4448.717773,4364.102539,4343.205078,4426.410156,0,2,45,,,,0,4,0,4,2,0,0,1,4,1,0,4,1,4,4,0,,,,,,,,,,,,,,,,,,,,,,,,,,,,,,,,,,,,,,,,,,,,,,,,,,,,,,,,,,,
1782732801,1782732801,42,0,4228.589844,4307.563965,4235.384766,4134.871582,4357.05127,4271.410156,4201.666504,4088.333252,4681.794922,4203.461426,4455.256348,4366.153809,4332.94873,4432.307617,0,2,45,,,,0,4,0,4,2,0,0,1,4,1,0,4,1,4,4,0,,,,,,,,,,,,,,,,,,,,,,,,,,,,,,,,,,,,,,,,,,,,,,,,,,,,,,,,,,,
1782732801,1782732801,43,0,4238.205078,4303.461426,4240.128418,4147.692383,4358.077148,4279.102539,4200.512695,4096.666504,4676.794922,4204.487305,4470.641113,4369.615234,4322.436035,4443.077148,0,2,45,,,,0,4,0,4,2,0,0,1,4,1,0,4,1,4,4,0,,,,,,,,,,,,,,,,,,,,,,,,,,,,,,,,,,,,,,,,,,,,,,,,,,,,,,,,,,,
1782732801,1782732801,44,0,4241.538574,4300.384766,4244.871582,4155.769043,4357.179688,4285.384766,4198.717773,4101.282227,4673.461426,4202.94873,4477.307617,4370.897461,4303.333496,4446.025879,0,2,45,,,,0,4,0,4,2,0,0,1,4,1,0,4,1,4,4,0,,,,,,,,,,,,,,,,,,,,,,,,,,,,,,,,,,,,,,,,,,,,,,,,,,,,,,,,,,,
1782732801,1782732801,45,0,4231.666504,4300.128418,4241.922852,4154.358887,4354.358887,4288.205078,4197.563965,4103.205078,4671.538574,4198.461426,4468.461426,4367.94873,4275.641113,4438.205078,0,2,45,,,,0,4,0,4,2,0,0,1,4,1,0,4,1,4,4,0,,,,,,,,,,,,,,,,,,,,,,,,,,,,,,,,,,,,,,,,,,,,,,,,,,,,,,,,,,,
1782732801,1782732801,46,0,4215.769043,4302.179688,4233.205078,4148.717773,4352.05127,4287.563965,4197.94873,4105.769043,4670.128418,4193.205078,4453.333496,4362.563965,4248.589844,4428.974121,0,2,45,,,,0,4,0,4,2,0,0,1,4,1,0,4,1,4,4,0,,,,,,,,,,,,,,,,,,,,,,,,,,,,,,,,,,,,,,,,,,,,,,,,,,,,,,,,,,,
1782732801,1782732801,47,0,4207.94873,4304.743652,4228.077148,4147.820313,4352.692383,4285,4198.717773,4110.641113,4668.589844,4189.358887,4446.666504,4358.974121,4234.487305,4429.743652,0,2,45,,,,0,4,0,4,2,0,0,1,4,1,0,4,1,4,4,0,,,,,,,,,,,,,,,,,,,,,,,,,,,,,,,,,,,,,,,,,,,,,,,,,,,,,,,,,,,
1782732801,1782732801,48,0,4216.794922,4305.512695,4234.102539,4155.641113,4356.666504,4282.307617,4198.846191,4116.538574,4666.410156,4187.692383,4455.128418,4360.256348,4238.333496,4441.538574,0,2,45,,,,0,4,0,4,2,0,0,1,4,1,0,4,1,4,4,0,,,,,,,,,,,,,,,,,,,,,,,,,,,,,,,,,,,,,,,,,,,,,,,,6,0,0.333969,-0.094177,0.699646,0.624573,-0.582591,0.842266,0.033573,9.214134,-56.311253,-9.557549
1782732801,1782732801,49,0,4236.794922,4304.358887,4248.589844,4167.563965,4361.922852,4280.512695,4198.461426,4121.410156,4664.102539,4186.666504,4471.410156,4366.153809,4253.461426,4454.102539,0,2,45,,,,0,4,0,4,2,0,0,1,4,1,0,4,1,4,4,0,,,,,,,,,,,,,,,,,,,,,,,,,,,,,,,,,,,,,,,,,,,,,,,,,,,,,,,,,,,
1782732801,1782732801,50,0,4251.922852,4302.692383,4260,4175.384766,4365.769043,4279.230957,4198.589844,4124.871582,4661.922852,4183.846191,4480.384766,4372.179688,4264.871582,4454.743652,0,2,45,,,,0,4,0,4,2,0,0,1,4,1,0,4,1,4,4,0,,,,,,,,,,,,,,,,,,,,,,,,,,,,,,,,,,,,,,,,,,,,,,,,,,,,,,,,,,,
1782732801,1782732801,51,0,4248.846191,4302.179688,4257.563965,4174.743652,4366.922852,4277.436035,4199.487305,4128.333496,4660.128418,4178.717773,4471.282227,4374.102539,4261.025879,4440.128418,0,2,45,,,,0,4,0,4,2,0,0,1,4,1,0,4,1,4,4,0,,,,,,,,,,,,,,,,,,,,,,,,,,,,,,,,,,,,,,,,,,,,,,,,,,,,,,,,,,,
1782732801,1782732801,52,0,4227.563965,4303.205078,4241.153809,4167.307617,4365.897461,4275.641113,4200.897461,4132.05127,4658.333496,4173.461426,4446.153809,4370.384766,4242.820313,4419.743652,0,2,45,,,,0,4,0,4,2,0,0,1,4,1,0,4,1,4,4,0,,,,,,,,,,,,,,,,,,,,,,,,,,,,,,,,,,,,,,,,,,,,,,,,,,,,,,,,,,,
1782732801,1782732801,53,0,4201.666504,4304.230957,4221.410156,4158.077148,4364.358887,4274.871582,4201.794922,4135.512695,4655.384766,4171.538574,4418.461426,4364.358887,4223.974121,4408.205078,0,2,45,,,,0,4,0,4,2,0,0,1,4,1,0,4,1,4,4,0,,,,,,,,,,,,,,,,,,,,,,,,,,,,,,,,,,,,,,,,,,,,,,,,,,,,,,,,,,,
1782732801,1782732801,54,0,4187.179688,4304.102539,4210.256348,4150.769043,4363.461426,4275.641113,4201.538574,4137.436035,4651.025879,4173.974121,4403.333496,4360.897461,4218.333496,4412.692383,0,2,45,,,,0,4,0,4,2,0,0,1,4,1,0,4,1,4,4,0,,,,,,,,,,,,,,,,,,,,,,,,,,,,,,,,,,,,,,,,,,,,,,,,,,,,,,,,,,,
1782732801,1782732801,55,0,4190.256348,4303.333496,4211.410156,4147.179688,4363.461426,4277.05127,4200.384766,4137.307617,4646.410156,4178.461426,4407.563965,4362.563965,4229.871582,4427.179688,0,2,45,,,,0,4,0,4,2,0,0,1,4,1,0,4,1,4,4,0,,,,,,,,,,,,,,,,,,,,,,,,,,,,,,,,,,,,,,,,,,,,,,,,,,,,,,,,,,,
1782732801,1782732801,56,0,4203.589844,4302.820313,4218.333496,4147.563965,4364.487305,4277.307617,4198.974121,4136.666504,4643.461426,4181.538574,4425.384766,4367.820313,4250.769043,4438.717773,0,2,45,,,,0,4,0,4,2,0,0,1,4,1,0,4,1,4,4,0,,,,,,,,,,,,,,,,,,,,,,,,,,,,,,,,,,,,,,,,,,,,,,,,7,0,0.329519,-0.092041,0.698486,0.62854,0.500061,-0.577219,0.851056,5.192721,-56.446793,-9.085128
1782732801,1782732801,57,0,4213.461426,4303.077148,4220.384766,4152.820313,4366.282227,4276.025879,4198.077148,4137.820313,4642.563965,4182.692383,4443.333496,4371.922852,4269.615234,4438.846191,0,2,45,,,,0,4,0,4,2,0,0,1,4,1,0,4,1,4,4,0,,,,,,,,,,,,,,,,,,,,,,,,,,,,,,,,,,,,,,,,,,,,,,,,,,,,,,,,,,,
1782732801,1782732801,58,0,4211.410156,4303.461426,4211.922852,4162.436035,4368.077148,4274.102539,4198.205078,4142.692383,4642.05127,4184.487305,4449.743652,4371.538574,4279.615234,4430.897461,0,2,45,,,,0,4,0,4,2,0,0,1,4,1,0,4,1,4,4,0,,,,,,,,,,,,,,,,,,,,,,,,,,,,,,,,,,,,,,,,,,,,,,,,,,,,,,,,,,,
1782732801,1782732801,59,0,4198.974121,4303.589844,4196.282227,4173.461426,4368.461426,4273.205078,4199.102539,4151.153809,4640.512695,4187.436035,4441.538574,4366.922852,4281.410156,4425.384766,0,2,45,,,,0,4,0,4,2,0,0,1,4,1,0,4,1,4,4,0,,,,,,,,,,,,,,,,,,,,,,,,,,,,,,,,,,,,,,,,,,,,,,,,,,,,,,,,,,,
1782732801,1782732801,60,0,4185.769043,4303.333496,4182.94873,4181.153809,4366.538574,4275,4199.358887,4161.025879,4638.333496,4187.820313,4426.666504,4361.538574,4280.769043,4428.846191,0,2,45,,,,0,4,0,4,2,0,0,1,4,1,0,4,1,4,4,0,,,,,,,,,,,,,,,,,,,,,,,,,,,,,,,,,,,,,,,,,,,,,,,,,,,,,,,,,,,
1782732801,1782732801,61,0,4181.153809,4303.205078,4179.743652,4181.922852,4362.94873,4279.743652,4197.94873,4169.743652,4637.563965,4179.615234,4418.205078,4359.102539,4283.717773,4438.974121,0,2,45,,,,0,4,0,4,2,0,0,1,4,1,0,4,1,4,4,0,,,,,,,,,,,,,,,,,,,,,,,,,,,,,,,,,,,,,,,,,,,,,,,,,,,,,,,,,,,
1782732801,1782732801,62,0,4186.282227,4303.333496,4186.025879,4176.282227,4359.615234,4286.153809,4193.974121,4175.128418,4639.102539,4160.897461,4423.717773,4360.512695,4292.692383,4446.666504,0,2,45,,,,0,4,0,4,2,0,0,1,4,1,0,4,1,4,4,0,,,,,,,,,,,,,,,,,,,,,,,,,,,,,,,,,,,,,,,,,,,,,,,,,,,,,,,,,,,
1782732801,1782732801,63,0,4194.743652,4303.333496,4193.846191,4168.846191,4358.333496,4291.922852,4188.589844,4176.794922,4641.153809,4139.102539,4439.230957,4363.717773,4305.128418,4445.512695,0,2,45,,,,0,4,0,4,2,0,0,1,4,1,0,4,1,4,4,0,,,,,,,,,,,,,,,,,,,,,,,,,,,,,,,,,,,,,,,,,,,,,,,,,,,,,,,,,,,
1782732801,1782732801,64,0,4199.487305,4303.333496,4196.410156,4165.769043,4359.743652,4295.769043,4183.974121,4177.179688,4639.487305,4127.94873,4452.307617,4366.025879,4316.025879,4437.05127,0,2,45,,,,0,4,0,4,2,0,0,1,4,1,0,4,1,4,4,0,,,,,,,,,,,,,,,,,,,,,,,,,,,,,,,,,,,,,,,,,,,,,,,,8,0,0.326975,-0.088989,0.697876,0.630981,-0.546453,0.840313,0.088756,1.390115,-56.552113,-8.676615
1782732801,1782732801,65,0,4198.333496,4303.333496,4194.102539,4170.769043,4363.333496,4298.589844,4182.436035,4179.743652,4631.153809,4140,4452.563965,4366.666504,4323.077148,4428.846191,0,2,45,,,,0,4,0,4,2,0,0,1,4,1,0,4,1,4,4,0,,,,,,,,,,,,,,,,,,,,,,,,,,,,,,,,,,,,,,,,,,,,,,,,,,,,,,,,,,,
1782732801,1782732801,66,0,4194.487305,4303.333496,4191.538574,4181.794922,4366.922852,4302.820313,4185.512695,4185.897461,4615.512695,4176.794922,4440.512695,4366.410156,4327.94873,4426.282227,0,2,45,,,,0,4,0,4,2,0,0,1,4,1,0,4,1,4,4,0,,,,,,,,,,,,,,,,,,,,,,,,,,,,,,,,,,,,,,,,,,,,,,,,,,,,,,,,,,,
1782732801,1782732801,67,0,4190.897461,4303.333496,4191.410156,4192.05127,4368.717773,4309.615234,4191.794922,4193.846191,4595.897461,4226.794922,4427.820313,4366.666504,4334.743652,4427.94873,0,2,45,,,,0,4,0,4,2,0,0,1,4,1,0,4,1,4,4,0,,,,,,,,,,,,,,,,,,,,,,,,,,,,,,,,,,,,,,,,,,,,,,,,,,,,,,,,,,,
1782732801,1782732801,68,0,4188.461426,4303.333496,4191.410156,4195.256348,4368.205078,4317.05127,4197.820313,4200.641113,4577.179688,4272.563965,4427.563965,4367.563965,4345.384766,4428.333496,0,2,45,,,,0,4,0,4,2,0,0,1,4,1,0,4,1,4,4,0,,,,,,,,,,,,,,,,,,,,,,,,,,,,,,,,,,,,,,,,,,,,,,,,,,,,,,,,,,,
1782732801,1782732801,69,0,4186.922852,4303.333496,4189.102539,4190.641113,4366.282227,4321.410156,4200.512695,4203.974121,4562.94873,4302.05127,4442.436035,4368.333496,4356.666504,4423.717773,0,2,45,,,,0,4,0,4,2,0,0,1,4,1,0,4,1,4,4,0,,,,,,,,,,,,,,,,,,,,,,,,,,,,,,,,,,,,,,,,,,,,,,,,,,,,,,,,,,,
1782732801,1782732801,70,0,4185.641113,4303.333496,4184.358887,4183.205078,4365,4320.641113,4200.256348,4204.230957,4553.589844,4315.641113,4459.230957,4368.077148,4361.538574,4414.871582,0,2,45,,,,0,4,0,4,2,0,0,1,4,1,0,4,1,4,4,0,,,,,,,,,,,,,,,,,,,,,,,,,,,,,,,,,,,,,,,,,,,,,,,,,,,,,,,,,,,
1782732801,1782732801,71,0,4183.974121,4303.333496,4179.615234,4177.563965,4365.384766,4316.025879,4200.384766,4203.717773,4546.153809,4321.410156,4458.717773,4366.282227,4354.358887,4404.871582,0,2,45,,,,0,4,0,4,2,0,0,1,4,1,0,4,1,4,4,0,,,,,,,,,,,,,,,,,,,,,,,,,,,,,,,,,,,,,,,,,,,,,,,,,,,,,,,,,,,
1782732801,1782732801,72,0,4180.769043,4303.333496,4175.769043,4173.717773,4367.05127,4311.666504,4204.230957,4205.256348,4536.794922,4326.153809,4431.282227,4363.461426,4335.769043,4395.128418,0,2,45,,,,0,4,0,4,2,0,0,1,4,1,0,4,1,4,4,0,,,,,,,,,,,,,,,,,,,,,,,,,,,,,,,,,,,,,,,,,,,,,,,,9,0,0.323943,-0.086304,0.697083,0.633789,0.500061,-0.538152,0.812965,-2.148896,-56.680237,-8.342287
1782732801,1782732801,73,0,4174.358887,4303.461426,4171.025879,4169.102539,4368.846191,4310.641113,4211.282227,4209.487305,4524.487305,4329.487305,4387.94873,4360.384766,4313.077148,4384.615234,0,2,45,,,,0,4,0,4,2,0,0,1,4,1,0,4,1,4,4,0,,,,,,,,,,,,,,,,,,,,,,,,,,,,,,,,,,,,,,,,,,,,,,,,,,,,,,,,,,,
1782732801,1782732801,74,0,4164.743652,4303.461426,4163.205078,4163.205078,4369.487305,4313.205078,4216.794922,4214.487305,4511.410156,4325.641113,4353.205078,4358.205078,4296.538574,4373.589844,0,2,45,,,,0,4,0,4,2,0,0,1,4,1,0,4,1,4,4,0,,,,,,,,,,,,,,,,,,,,,,,,,,,,,,,,,,,,,,,,,,,,,,,,,,,,,,,,,,,
1782732801,1782732801,75,0,4154.743652,4303.333496,4153.205078,4159.743652,4368.846191,4316.282227,4216.538574,4217.820313,4502.05127,4310.769043,4348.077148,4357.307617,4293.077148,4365.256348,0,2,45,,,,0,4,0,4,2,0,0,1,4,1,0,4,1,4,4,0,,,,,,,,,,,,,,,,,,,,,,,,,,,,,,,,,,,,,,,,,,,,,,,,,,,,,,,,,,,
1782732801,1782732801,76,0,4148.461426,4303.205078,4144.615234,4162.820313,4367.179688,4316.794922,4210.897461,4218.461426,4499.230957,4288.333496,4374.871582,4357.563965,4303.461426,4364.743652,0,2,45,,,,0,4,0,4,2,0,0,1,4,1,0,4,1,4,4,0,,,,,,,,,,,,,,,,,,,,,,,,,,,,,,,,,,,,,,,,,,,,,,,,,,,,,,,,,,,
1782732801,1782732801,77,0,4148.461426,4303.077148,4141.794922,4172.179688,4366.025879,4314.102539,4205,4217.820313,4501.794922,4267.94873,4414.871582,4357.94873,4321.025879,4374.230957,0,2,45,,,,0,4,0,4,2,0,0,1,4,1,0,4,1,4,4,0,,,,,,,,,,,,,,,,,,,,,,,,,,,,,,,,,,,,,,,,,,,,,,,,,,,,,,,,,,,
1782732801,1782732801,78,0,4153.333496,4303.333496,4145.384766,4182.563965,4366.153809,4310.897461,4203.333496,4218.077148,4506.153809,4257.563965,4442.307617,4357.692383,4336.538574,4390.256348,0,2,45,,,,0,4,0,4,2,0,0,1,4,1,0,4,1,4,4,0,,,,,,,,,,,,,,,,,,,,,,,,,,,,,,,,,,,,,,,,,,,,,,,,,,,,,,,,,,,
1782732801,1782732801,79,0,4160,4303.589844,4152.05127,4186.794922,4368.077148,4310.256348,4206.538574,4220.769043,4508.461426,4258.333496,4442.436035,4356.666504,4344.743652,4406.153809,0,2,45,,,,0,4,0,4,2,0,0,1,4,1,0,4,1,4,4,0,,,,,,,,,,,,,,,,,,,,,,,,,,,,,,,,,,,,,,,,,,,,,,,,,,,,,,,,,,,
1782732801,1782732801,80,0,4165,4303.846191,4157.179688,4181.282227,4370.769043,4313.077148,4211.410156,4226.410156,4506.666504,4264.871582,4421.282227,4356.282227,4347.179688,4415.897461,0,2,45,,,,0,4,0,4,2,0,0,1,4,1,0,4,1,4,4,0,,,,,,,,,,,,,,,,,,,,,,,,,,,,,,,,,,,,,,,,,,,,,,,,10,0,0.320389,-0.082275,0.695984,0.637329,-0.583079,0.79099,0.066292,-5.21734,-56.678879,-8.008058
1782732801,1782732801,81,0,4167.820313,4303.461426,4158.589844,4169.358887,4372.179688,4317.179688,4214.102539,4233.589844,4500.641113,4271.025879,4399.358887,4357.820313,4350.769043,4418.717773,0,2,45,,,,0,4,0,4,2,0,0,1,4,1,0,4,1,4,4,0,,,,,,,,,,,,,,,,,,,,,,,,,,,,,,,,,,,,,,,,,,,,,,,,,,,,,,,,,,,
1782732801,1782732801,82,0,4170.512695,4302.820313,4158.974121,4160.128418,4370.897461,4319.230957,4213.461426,4239.871582,4492.436035,4273.077148,4395.512695,4361.666504,4362.179688,4417.820313,0,2,45,,,,0,4,0,4,2,0,0,1,4,1,0,4,1,4,4,0,,,,,,,,,,,,,,,,,,,,,,,,,,,,,,,,,,,,,,,,,,,,,,,,,,,,,,,,,,,
1782732801,1782732801,83,0,4177.179688,4302.179688,4164.487305,4162.307617,4367.563965,4317.307617,4211.282227,4243.974121,4486.538574,4271.538574,4413.589844,4367.05127,4382.05127,4418.205078,0,2,45,,,,0,4,0,4,2,0,0,1,4,1,0,4,1,4,4,0,,,,,,,,,,,,,,,,,,,,,,,,,,,,,,,,,,,,,,,,,,,,,,,,,,,,,,,,,,,
1782732801,1782732801,84,0,4188.333496,4302.05127,4177.94873,4176.666504,4364.615234,4312.820313,4210.384766,4245,4486.922852,4268.974121,4440.128418,4371.922852,4403.205078,4422.436035,0,2,45,,,,0,4,0,4,2,0,0,1,4,1,0,4,1,4,4,0,,,,,,,,,,,,,,,,,,,,,,,,,,,,,,,,,,,,,,,,,,,,,,,,,,,,,,,,,,,
1782732801,1782732801,85,0,4198.205078,4302.563965,4192.94873,4193.589844,4363.589844,4308.333496,4211.410156,4242.94873,4494.358887,4267.436035,4454.102539,4374.358887,4413.461426,4427.692383,0,2,45,,,,0,4,0,4,2,0,0,1,4,1,0,4,1,4,4,0,,,,,,,,,,,,,,,,,,,,,,,,,,,,,,,,,,,,,,,,,,,,,,,,,,,,,,,,,,,
1782732801,1782732801,86,0,4196.922852,4303.333496,4197.05127,4199.358887,4364.102539,4305.384766,4212.179688,4237.563965,4505.897461,4267.307617,4441.025879,4372.94873,4402.820313,4427.563965,0,2,45,,,,0,4,0,4,2,0,0,1,4,1,0,4,1,4,4,0,,,,,,,,,,,,,,,,,,,,,,,,,,,,,,,,,,,,,,,,,,,,,,,,,,,,,,,,,,,
1782732801,1782732801,87,0,4179.743652,4304.358887,4182.307617,4187.05127,4364.743652,4303.205078,4209.871582,4231.153809,4516.538574,4267.820313,4403.846191,4367.820313,4370.897461,4417.820313,0,2,45,,,,0,4,0,4,2,0,0,1,4,1,0,4,1,4,4,0,,,,,,,,,,,,,,,,,,,,,,,,,,,,,,,,,,,,,,,,,,,,,,,,,,,,,,,,,,,
1782732801,1782732801,88,0,4153.589844,4305.128418,4155.897461,4162.563965,4364.743652,4300.512695,4204.358887,4228.717773,4522.94873,4267.820313,4361.025879,4361.538574,4329.487305,4400.256348,0,2,45,,,,0,4,0,4,2,0,0,1,4,1,0,4,1,4,4,0,,,,,,,,,,,,,,,,,,,,,,,,,,,,,,,,,,,,,,,,,,,,,,,,11,0,0.318403,-0.080627,0.695801,0.638733,-0.609449,0.821267,0.053107,-7.995606,-56.610989,-7.690586
1782732801,1782732801,89,0,4133.589844,4304.743652,4135,4141.025879,4364.615234,4296.794922,4198.846191,4234.871582,4525,4267.179688,4333.589844,4357.820313,4296.666504,4382.820313,0,2,45,,,,0,4,0,4,2,0,0,1,4,1,0,4,1,4,4,0,,,,,,,,,,,,,,,,,,,,,,,,,,,,,,,,,,,,,,,,,,,,,,,,,,,,,,,,,,,
1782732801,1782732801,90,0,4130.512695,4302.94873,4133.461426,4136.025879,4364.487305,4293.589844,4197.563965,4248.846191,4525.512695,4265.897461,4329.615234,4358.461426,4284.230957,4373.846191,0,2,45,,,,0,4,0,4,2,0,0,1,4,1,0,4,1,4,4,0,,,,,,,,,,,,,,,,,,,,,,,,,,,,,,,,,,,,,,,,,,,,,,,,,,,,,,,,,,,
1782732801,1782732801,91,0,4142.05127,4300.512695,4149.743652,4150.128418,4364.102539,4292.179688,4200.769043,4263.461426,4527.563965,4263.589844,4340.384766,4361.922852,4288.974121,4376.025879,0,2,45,,,,0,4,0,4,2,0,0,1,4,1,0,4,1,4,4,0,,,,,,,,,,,,,,,,,,,,,,,,,,,,,,,,,,,,,,,,,,,,,,,,,,,,,,,,,,,
1782732801,1782732801,92,0,4155.512695,4298.717773,4169.230957,4174.230957,4362.820313,4293.077148,4205,4270,4532.563965,4260,4350.641113,4364.487305,4297.307617,4384.871582,0,2,45,,,,0,4,0,4,2,0,0,1,4,1,0,4,1,4,4,0,,,,,,,,,,,,,,,,,,,,,,,,,,,,,,,,,,,,,,,,,,,,,,,,,,,,,,,,,,,
1782732801,1782732801,93,0,4159.230957,4298.846191,4176.538574,4195,4361.025879,4295.641113,4206.153809,4265.512695,4538.974121,4256.282227,4352.436035,4363.974121,4295.897461,4393.205078,0,2,45,,,,0,4,0,4,2,0,0,1,4,1,0,4,1,4,4,0,,,,,,,,,,,,,,,,,,,,,,,,,,,,,,,,,,,,,,,,,,,,,,,,,,,,,,,,,,,
1782732801,1782732801,94,0,4151.153809,4300.641113,4168.077148,4204.487305,4359.743652,4299.358887,4203.077148,4254.871582,4543.589844,4254.487305,4350.128418,4360.769043,4283.333496,4396.410156,0,2,45,,,,0,4,0,4,2,0,0,1,4,1,0,4,1,4,4,0,,,,,,,,,,,,,,,,,,,,,,,,,,,,,,,,,,,,,,,,,,,,,,,,,,,,,,,,,,,
1782732801,1782732801,95,0,4138.461426,4303.077148,4152.307617,4202.179688,4360,4303.589844,4198.461426,4246.922852,4543.333496,4256.153809,4352.436035,4357.436035,4268.717773,4394.102539,0,2,45,,,,0,4,0,4,2,0,0,1,4,1,0,4,1,4,4,0,,,,,,,,,,,,,,,,,,,,,,,,,,,,,,,,,,,,,,,,,,,,,,,,,,,,,,,,,,,
1782732801,1782732801,96,0,4130.512695,4304.615234,4141.666504,4195.128418,4361.666504,4308.077148,4196.410156,4247.436035,4537.436035,4260.897461,4361.922852,4356.025879,4262.820313,4389.230957,0,2,45,,,,0,4,0,4,2,0,0,1,4,1,0,4,1,4,4,0,,,,,,,,,,,,,,,,,,,,,,,,,,,,,,,,,,,,,,,,,,,,,,,,12,0,0.312317,-0.078186,0.697266,0.640442,-0.564034,0.88524,0.033085,-10.446045,-56.566559,-7.50486
1782732801,1782732801,97,0,4132.05127,4304.487305,4143.205078,4193.077148,4363.589844,4312.692383,4198.333496,4255.384766,4527.820313,4265.512695,4372.307617,4357.05127,4268.333496,4385,0,2,45,,,,0,4,0,4,2,0,0,1,4,1,0,4,1,4,4,0,,,,,,,,,,,,,,,,,,,,,,,,,,,,,,,,,,,,,,,,,,,,,,,,,,,,,,,,,,,
1782732801,1782732801,98,0,4141.666504,4303.333496,4154.871582,4201.794922,4364.230957,4316.794922,4202.05127,4265.384766,4519.615234,4265.384766,4375.128418,4359.358887,4278.205078,4384.230957,0,2,45,,,,0,4,0,4,2,0,0,1,4,1,0,4,1,4,4,0,,,,,,,,,,,,,,,,,,,,,,,,,,,,,,,,,,,,,,,,,,,,,,,,,,,,,,,,,,,
1782732801,1782732801,99,0,4153.205078,4302.436035,4168.974121,4219.102539,4362.692383,4319.743652,4203.974121,4272.692383,4517.94873,4258.205078,4366.922852,4360.641113,4282.179688,4387.179688,0,2,45,,,,0,4,0,4,2,0,0,1,4,1,0,4,1,4,4,0,,,,,,,,,,,,,,,,,,,,,,,,,,,,,,,,,,,,,,,,,,,,,,,,,,,,,,,,,,,
1782732801,1782732801,100,0,4159.743652,4302.179688,4177.179688,4235.256348,4360.384766,4321.410156,4202.692383,4275.769043,4523.846191,4246.666504,4352.563965,4359.230957,4275.769043,4390.641113,0,2,45,,,,0,4,0,4,2,0,0,1,4,1,0,4,1,4,4,0,,,,,,,,,,,,,,,,,,,,,,,,,,,,,,,,,,,,,,,,,,,,,,,,,,,,,,,,,,,
1782732801,1782732801,101,0,4157.307617,4302.563965,4176.153809,4240.641113,4359.487305,4322.436035,4200.128418,4276.025879,4532.307617,4237.436035,4340.897461,4355.256348,4262.820313,4389.871582,0,2,45,,,,0,4,0,4,2,0,0,1,4,1,0,4,1,4,4,0,,,,,,,,,,,,,,,,,,,,,,,,,,,,,,,,,,,,,,,,,,,,,,,,,,,,,,,,,,,
1782732801,1782732801,102,0,4147.820313,4302.820313,4169.230957,4234.487305,4361.794922,4324.487305,4199.487305,4276.282227,4536.025879,4236.922852,4338.717773,4350.641113,4250.384766,4383.846191,0,2,45,,,,0,4,0,4,2,0,0,1,4,1,0,4,1,4,4,0,,,,,,,,,,,,,,,,,,,,,,,,,,,,,,,,,,,,,,,,,,,,,,,,,,,,,,,,,,,
1782732801,1782732801,103,0,4138.333496,4302.94873,4163.333496,4224.871582,4366.666504,4329.358887,4202.692383,4278.589844,4531.153809,4246.410156,4346.538574,4348.333496,4241.666504,4376.153809,0,2,45,,,,0,4,0,4,2,0,0,1,4,1,0,4,1,4,4,0,,,,,,,,,,,,,,,,,,,,,,,,,,,,,,,,,,,,,,,,,,,,,,,,,,,,,,,,,,,
1782732801,1782732801,104,0,4134.743652,4303.077148,4163.077148,4221.153809,4371.025879,4337.179688,4208.589844,4283.461426,4520.256348,4262.05127,4356.922852,4349.615234,4231.025879,4373.461426,0,2,45,,,,0,4,0,4,2,0,0,1,4,1,0,4,1,4,4,0,,,,,,,,,,,,,,,,,,,,,,,,,,,,,,,,,,,,,,,,,,,,,,,,13,0,0.30577,-0.075378,0.699463,0.641541,-0.541082,0.862776,0.0199,-12.834774,-56.509903,-7.237708
1782732801,1782732801,105,0,4138.205078,4303.077148,4167.820313,4225.512695,4372.307617,4346.922852,4214.615234,4289.358887,4510.769043,4277.179688,4361.410156,4353.461426,4205.897461,4378.717773,0,2,45,,,,0,4,0,4,2,0,0,1,4,1,0,4,1,4,4,0,,,,,,,,,,,,,,,,,,,,,,,,,,,,,,,,,,,,,,,,,,,,,,,,,,,,,,,,,,,
1782732801,1782732801,106,0,4144.487305,4302.820313,4172.307617,4232.820313,4371.282227,4356.410156,4218.461426,4294.358887,4507.94873,4287.820313,4357.436035,4356.282227,4155.769043,4389.102539,0,2,45,,,,0,4,0,4,2,0,0,1,4,1,0,4,1,4,4,0,,,,,,,,,,,,,,,,,,,,,,,,,,,,,,,,,,,,,,,,,,,,,,,,,,,,,,,,,,,
1782732801,1782732801,107,0,4148.333496,4301.922852,4171.794922,4234.102539,4370.641113,4364.487305,4219.871582,4296.922852,4511.025879,4293.205078,4349.871582,4355.256348,4084.615479,4398.205078,0,2,45,,,,0,4,0,4,2,0,0,1,4,1,0,4,1,4,4,0,,,,,,,,,,,,,,,,,,,,,,,,,,,,,,,,,,,,,,,,,,,,,,,,,,,,,,,,,,,
1782732801,1782732801,108,0,4146.410156,4300.128418,4164.743652,4224.615234,4372.179688,4371.538574,4221.153809,4297.179688,4513.589844,4294.615234,4346.025879,4350.641113,4014.230713,4399.615234,0,2,45,,,,0,4,0,4,2,0,0,1,4,1,0,4,1,4,4,0,,,,,,,,,,,,,,,,,,,,,,,,,,,,,,,,,,,,,,,,,,,,,,,,,,,,,,,,,,,
1782732801,1782732801,109,0,4138.846191,4298.333496,4153.717773,4206.922852,4374.871582,4378.974121,4223.974121,4295.641113,4508.461426,4293.205078,4350.512695,4345,3972.94873,4392.179688,0,2,45,,,,0,4,0,4,2,0,0,1,4,1,0,4,1,4,4,0,,,,,,,,,,,,,,,,,,,,,,,,,,,,,,,,,,,,,,,,,,,,,,,,,,,,,,,,,,,
1782732801,1782732801,110,0,4129.230957,4297.820313,4144.230957,4190.512695,4376.153809,4387.820313,4228.333496,4293.589844,4493.205078,4291.666504,4363.333496,4340.256348,3973.333252,4380.384766,0,2,45,,,,0,4,0,4,2,0,0,1,4,1,0,4,1,4,4,0,,,,,,,,,,,,,,,,,,,,,,,,,,,,,,,,,,,,,,,,,,,,,,,,,,,,,,,,,,,
1782732801,1782732801,111,0,4123.717773,4299.358887,4141.538574,4184.871582,4374.230957,4397.563965,4232.05127,4292.692383,4472.307617,4295,4379.871582,4337.179688,3998.461426,4371.794922,0,2,45,,,,0,4,0,4,2,0,0,1,4,1,0,4,1,4,4,0,,,,,,,,,,,,,,,,,,,,,,,,,,,,,,,,,,,,,,,,,,,,,,,,,,,,,,,,,,,
1782732801,1782732801,112,0,4126.922852,4302.179688,4147.05127,4192.436035,4370.256348,4407.179688,4233.717773,4294.871582,4454.358887,4308.333496,4393.717773,4335.897461,4009.871826,4371.794922,0,2,45,,,,0,4,0,4,2,0,0,1,4,1,0,4,1,4,4,0,,,,,,,,,,,,,,,,,,,,,,,,,,,,,,,,,,,,,,,,,,,,,,,,14,0,0.298623,-0.072693,0.701599,0.642883,-0.5152,0.844219,0.039434,-14.93463,-56.37558,-7.030603
1782732801,1782732801,113,0,4138.461426,4304.487305,4157.94873,4206.538574,4367.05127,4416.282227,4234.230957,4300.769043,4446.025879,4332.436035,4400.384766,4336.282227,3972.435791,4381.153809,0,2,45,,,,0,4,0,4,2,0,0,1,4,1,0,4,1,4,4,0,,,,,,,,,,,,,,,,,,,,,,,,,,,,,,,,,,,,,,,,,,,,,,,,,,,,,,,,,,,
1782732801,1782732801,114,0,4152.179688,4305.128418,4168.333496,4215.384766,4366.538574,4425.256348,4235.769043,4307.94873,4447.692383,4360.128418,4399.230957,4338.846191,3878.589844,4395.512695,0,2,45,,,,0,4,0,4,2,0,0,1,4,1,0,4,1,4,4,0,1,0,1,0,1,0,0,0,1,1,0,0,0,1,0,1,,,,,,,,,,,,,,,,,,,,,,,,,,,,,,,,,,,,,,,,,,,
1782732801,1782732801,115,0,4161.282227,4304.487305,4173.717773,4211.025879,4367.94873,4434.743652,4240.128418,4312.563965,4452.94873,4378.846191,4392.820313,4342.94873,3755,4408.333496,0,2,45,,,,0,4,0,4,2,0,0,1,4,1,0,4,1,4,4,0,,,,,,,,,,,,,,,,,,,,,,,,,,,,,,,,,,,,,,,,,,,,,,,,,,,,,,,,,,,
1782732801,1782732801,116,0,4163.717773,4303.205078,4173.717773,4194.743652,4369.230957,4445.128418,4245.512695,4312.563965,4454.615234,4379.230957,4386.794922,4346.922852,3651.153809,4414.871582,0,2,45,,,,0,4,0,4,2,0,0,1,4,1,0,4,1,4,4,0,,,,,,,,,,,,,,,,,,,,,,,,,,,,,,,,,,,,,,,,,,,,,,,,,,,,,,,,,,,
1782732801,1782732801,117,0,4164.871582,4302.436035,4172.692383,4177.436035,4368.333496,4455.897461,4249.102539,4309.871582,4450.641113,4361.153809,4386.410156,4348.717773,3611.923096,4415.641113,0,2,45,,,,0,4,0,4,2,0,0,1,4,1,0,4,1,4,4,0,,,,,,,,,,,,,,,,,,,,,,,,,,,,,,,,,,,,,,,,,,,,,,,,,,,,,,,,,,,
1782732801,1782732801,118,0,4171.282227,4302.820313,4176.282227,4170,4365,4466.794922,4249.615234,4308.333496,4445.512695,4334.487305,4392.563965,4347.563965,3650.384521,4414.358887,0,2,45,,,,0,4,0,4,2,0,0,1,4,1,0,4,1,4,4,0,,,,,,,,,,,,,,,,,,,,,,,,,,,,,,,,,,,,,,,,,,,,,,,,,,,,,,,,,,,
1782732801,1782732801,119,0,4184.358887,4304.615234,4185.384766,4173.846191,4360.897461,4476.794922,4249.358887,4311.025879,4445.256348,4312.820313,4398.333496,4343.846191,3739.487061,4414.230957,0,2,45,,,,0,4,0,4,2,0,0,1,4,1,0,4,1,4,4,0,,,,,,,,,,,,,,,,,,,,,,,,,,,,,,,,,,,,,,,,,,,,,,,,,,,,,,,,,,,
1782732801,1782732801,120,0,4197.563965,4306.538574,4192.94873,4178.846191,4358.717773,4485.384766,4251.410156,4316.922852,4451.538574,4304.358887,4392.436035,4339.230957,3831.153809,4413.333496,0,2,45,,,,0,4,0,4,2,0,0,1,4,1,0,4,1,4,4,0,,,,,,,,,,,,,,,,,,,,,,,,,,,,,,,,,,,,,,,,,,,,,,,,15,0,0.286945,-0.067505,0.704407,0.645691,-0.484434,0.8911,0.009156,-16.974501,-56.271355,-6.977543
1782732801,1782732801,121,0,4201.922852,4307.05127,4189.487305,4172.820313,4360.256348,4492.307617,4256.922852,4322.820313,4461.282227,4307.179688,4369.487305,4334.615234,3892.820557,4406.538574,0,2,45,,,,0,4,0,4,2,0,0,1,4,1,0,4,1,4,4,0,,,,,,,,,,,,,,,,,,,,,,,,,,,,,,,,,,,,,,,,,,,,,,,,,,,,,,,,,,,
1782732801,1782732801,122,0,4194.358887,4305.128418,4172.179688,4152.436035,4365.128418,4498.461426,4263.333496,4325.769043,4471.025879,4312.563965,4337.436035,4330.897461,3931.794922,4391.410156,0,2,45,,,,0,4,0,4,2,0,0,1,4,1,0,4,1,4,4,0,,,,,,,,,,,,,,,,,,,,,,,,,,,,,,,,,,,,,,,,,,,,,,,,,,,,,,,,,,,
1782732801,1782732801,123,0,4181.410156,4301.666504,4150.384766,4126.538574,4371.025879,4504.615234,4266.282227,4325.384766,4478.974121,4311.922852,4315.128418,4328.717773,3987.179443,4372.94873,0,2,45,,,,0,4,0,4,2,0,0,1,4,1,0,4,1,4,4,0,,,,,,,,,,,,,,,,,,,,,,,,,,,,,,,,,,,,,,,,,,,,,,,,,,,,,,,,,,,
1782732801,1782732801,124,0,4175.641113,4298.717773,4139.487305,4108.461426,4375.384766,4510.512695,4263.717773,4323.333496,4485.769043,4303.717773,4319.230957,4328.717773,4094.102539,4360.897461,0,2,45,,,,0,4,0,4,2,0,0,1,4,1,0,4,1,4,4,0,,,,,,,,,,,,,,,,,,,,,,,,,,,,,,,,,,,,,,,,,,,,,,,,,,,,,,,,,,,
1782732801,1782732801,125,0,4186.538574,4297.692383,4149.743652,4105.256348,4376.794922,4515,4256.922852,4321.922852,4491.153809,4293.717773,4351.666504,4330.641113,4249.358887,4363.205078,0,2,45,,,,0,4,0,4,2,0,0,1,4,1,0,4,1,4,4,0,,,,,,,,,,,,,,,,,,,,,,,,,,,,,,,,,,,,,,,,,,,,,,,,,,,,,,,,,,,
1782732801,1782732801,126,0,4213.205078,4298.974121,4177.820313,4111.922852,4375.256348,4517.563965,4249.102539,4322.820313,4493.205078,4288.974121,4396.153809,4333.974121,4409.615234,4378.974121,0,2,45,,,,0,4,0,4,2,0,0,1,4,1,0,4,1,4,4,0,,,,,,,,,,,,,,,,,,,,,,,,,,,,,,,,,,,,,,,,,,,,,,,,,,,,,,,,,,,
1782732801,1782732801,127,0,4244.358887,4301.153809,4208.077148,4115.128418,4372.179688,4518.974121,4243.077148,4326.794922,4491.153809,4291.025879,4427.692383,4337.436035,4521.153809,4399.230957,0,2,45,,,,0,4,0,4,2,0,0,1,4,1,0,4,1,4,4,0,,,,,,,,,,,,,,,,,,,,,,,,,,,,,,,,,,,,,,,,,,,,,,,,,,,,,,,,,,,
1782732801,1782732801,128,0,4266.282227,4302.307617,4224.358887,4103.077148,4369.230957,4521.025879,4239.230957,4333.589844,4487.820313,4295.897461,4429.615234,4339.743652,4556.410156,4412.307617,2269,2,45,,,,0,4,0,4,2,0,0,1,4,1,0,4,1,4,4,0,,,,,,,,,,,,,,,,,,,,,,,,,,,,,,,,,,,,,,,,,,,,,,,,16,0,0.278152,-0.063416,0.706238,0.647949,-0.466366,0.896472,-0.011842,-18.910383,-56.110886,-6.913122
1782732801,1782732801,129,0,4272.692383,4301.410156,4221.410156,4073.589844,4367.820313,4524.487305,4235.897461,4342.05127,4488.333496,4298.846191,4405.256348,4340.641113,4530,4413.077148,1055,2,45,,,,0,4,0,4,2,0,0,1,4,1,0,4,1,4,4,0,,,,,,,,,,,,,,,,,,,,,,,,,,,,,,,,,,,,,,,,,,,,,,,,,,,,,,,,,,,
1782732801,1782732801,130,0,4267.94873,4298.974121,4206.922852,4034.615479,4368.461426,4528.589844,4231.922852,4350.641113,4495.769043,4299.102539,4376.025879,4340.128418,4484.230957,4407.307617,2521,2,45,,,,0,4,0,4,2,0,0,1,4,1,0,4,1,4,4,0,,,,,,,,,,,,,,,,,,,,,,,,,,,,,,,,,,,,,,,,,,,,,,,,,,,,,,,,,,,
1782732801,1782732801,131,0,4262.307617,4296.794922,4194.358887,3997.820557,4370.641113,4532.307617,4228.205078,4358.461426,4506.794922,4298.461426,4364.615234,4339.358887,4460.897461,4406.282227,0,2,45,,,,0,4,0,4,2,0,0,1,4,1,0,4,1,4,4,0,,,,,,,,,,,,,,,,,,,,,,,,,,,,,,,,,,,,,,,,,,,,,,,,,,,,,,,,,,,
1782732801,1782732801,132,0,4264.230957,4296.025879,4193.974121,3972.05127,4374.102539,4535.769043,4227.05127,4364.871582,4513.333496,4297.692383,4380.897461,4339.743652,4476.282227,4417.692383,0,2,45,,,,0,4,0,4,2,0,0,1,4,1,0,4,1,4,4,0,,,,,,,,,,,,,,,,,,,,,,,,,,,,,,,,,,,,,,,,,,,,,,,,,,,,,,,,,,,
1782732801,1782732801,133,0,4275.769043,4296.666504,4207.692383,3959.102539,4378.205078,4540.256348,4230.256348,4370.384766,4506.922852,4295.769043,4417.179688,4342.436035,4517.692383,4439.487305,0,2,45,,,,0,4,0,4,2,0,0,1,4,1,0,4,1,4,4,0,,,,,,,,,,,,,,,,,,,,,,,,,,,,,,,,,,,,,,,,,,,,,,,,,,,,,,,,,,,
1782732801,1782732801,134,0,4292.692383,4298.077148,4228.589844,3953.718018,4382.436035,4547.436035,4236.794922,4375.128418,4484.743652,4291.922852,4456.153809,4346.922852,4557.692383,4462.307617,454,2,45,,,,0,4,0,4,2,0,0,1,4,1,0,4,1,4,4,0,,,,,,,,,,,,,,,,,,,,,,,,,,,,,,,,,,,,,,,,,,,,,,,,,,,,,,,,,,,
1782732801,1782732801,135,0,4307.436035,4299.102539,4245.384766,3948.718018,4385.384766,4558.461426,4243.333496,4378.717773,4453.077148,4287.179688,4480.512695,4351.794922,4575,4475.769043,1558,2,45,,,,0,4,0,4,2,0,0,1,4,1,0,4,1,4,4,0,,,,,,,,,,,,,,,,,,,,,,,,,,,,,,,,,,,,,,,,,,,,,,,,,,,,,,,,,,,
1782732801,1782732801,136,0,4312.820313,4299.230957,4249.358887,3940.256348,4385.512695,4572.692383,4246.922852,4380.769043,4423.589844,4283.333496,4482.179688,4354.743652,4567.307617,4475.641113,193,2,45,,,,0,4,0,4,2,0,0,1,4,1,0,4,1,4,4,0,,,,,,,,,,,,,,,,,,,,,,,,,,,,,,,,,,,,,,,,,,,,,,,,17,0,0.270087,-0.058105,0.708252,0.649658,-0.45904,0.92333,-0.021121,-20.452679,-55.749798,-6.82181
1782732801,1782732801,137,0,4306.538574,4298.589844,4240,3929.487061,4381.794922,4587.436035,4247.307617,4381.794922,4406.282227,4281.538574,4466.794922,4354.871582,4548.077148,4465.256348,0,2,45,,,,0,4,0,4,2,0,0,1,4,1,0,4,1,4,4,0,,,,,,,,,,,,,,,,,,,,,,,,,,,,,,,,,,,,,,,,,,,,,,,,,,,,,,,,,,,
1782732801,1782732801,138,0,4293.205078,4298.077148,4225.641113,3919.871826,4375.128418,4599.743652,4247.307617,4382.820313,4403.717773,4280.897461,4449.743652,4353.077148,4532.179688,4454.230957,2247,2,45,,,,0,4,0,4,2,0,0,1,4,1,0,4,1,4,4,0,,,,,,,,,,,,,,,,,,,,,,,,,,,,,,,,,,,,,,,,,,,,,,,,,,,,,,,,,,,
1782732801,1782732801,139,0,4281.794922,4298.461426,4216.922852,3912.307617,4368.205078,4607.820313,4250.897461,4384.743652,4409.743652,4280.769043,4444.487305,4350.256348,4525.256348,4451.025879,2825,2,45,,,,0,4,0,4,2,0,0,1,4,1,0,4,1,4,4,0,,,,,,,,,,,,,,,,,,,,,,,,,,,,,,,,,,,,,,,,,,,,,,,,,,,,,,,,,,,
1782732801,1782732801,140,0,4278.077148,4299.102539,4218.077148,3903.461426,4363.589844,4612.692383,4258.974121,4388.077148,4415.128418,4281.282227,4453.333496,4346.153809,4523.589844,4457.179688,2807,2,45,,,,0,4,0,4,2,0,0,1,4,1,0,4,1,4,4,0,,,,,,,,,,,,,,,,,,,,,,,,,,,,,,,,,,,,,,,,,,,,,,,,,,,,,,,,,,,
1782732801,1782732801,141,0,4280.769043,4299.102539,4224.743652,3888.846191,4361.794922,4617.05127,4269.102539,4392.436035,4414.230957,4283.461426,4467.692383,4340.384766,4522.563965,4466.025879,192,2,45,,,,0,4,0,4,2,0,0,1,4,1,0,4,1,4,4,0,,,,,,,,,,,,,,,,,,,,,,,,,,,,,,,,,,,,,,,,,,,,,,,,,,,,,,,,,,,
1782732801,1782732801,142,0,4283.717773,4297.692383,4228.589844,3868.718018,4361.410156,4623.461426,4277.179688,4397.179688,4408.461426,4288.205078,4478.205078,4333.205078,4523.717773,4468.974121,2247,2,45,,,,0,4,0,4,2,0,0,1,4,1,0,4,1,4,4,0,,,,,,,,,,,,,,,,,,,,,,,,,,,,,,,,,,,,,,,,,,,,,,,,,,,,,,,,,,,
1782732801,1782732801,143,0,4282.563965,4295.769043,4225.769043,3849.102539,4360.897461,4631.282227,4280.897461,4401.922852,4403.717773,4295.384766,4483.333496,4326.922852,4532.179688,4463.589844,2825,2,45,,,,0,4,0,4,2,0,0,1,4,1,0,4,1,4,4,0,,,,,,,,,,,,,,,,,,,,,,,,,,,,,,,,,,,,,,,,,,,,,,,,,,,,,,,,,,,
1782732801,1782732801,144,0,4278.974121,4294.743652,4219.871582,3838.461426,4360,4637.179688,4280.128418,4406.025879,4403.846191,4303.333496,4488.589844,4324.102539,4550.256348,4455.641113,2807,2,45,,,,0,4,0,4,2,0,0,1,4,1,0,4,1,4,4,0,,,,,,,,,,,,,,,,,,,,,,,,,,,,,,,,,,,,,,,,,,,,,,,,18,0,0.254183,-0.051453,0.71167,0.652893,-0.439018,0.887682,-0.031376,-22.024076,-55.574818,-6.839629
1782732801,1782732801,145,0,4278.205078,4295.769043,4217.307617,3842.820557,4359.358887,4638.205078,4277.307617,4409.358887,4407.179688,4310,4498.205078,4325.512695,4571.538574,4454.230957,192,2,45,,,,0,4,0,4,2,0,0,1,4,1,0,4,1,4,4,0,,,,,,,,,,,,,,,,,,,,,,,,,,,,,,,,,,,,,,,,,,,,,,,,,,,,,,,,,,,
1782732801,1782732801,146,0,4283.589844,4298.461426,4221.666504,3861.410156,4359.358887,4634.615234,4275,4412.436035,4408.589844,4312.563965,4511.153809,4329.102539,4583.717773,4463.846191,2247,2,45,,,,0,4,0,4,2,0,0,1,4,1,0,4,1,4,4,0,,,,,,,,,,,,,,,,,,,,,,,,,,,,,,,,,,,,,,,,,,,,,,,,,,,,,,,,,,,
1782732801,1782732801,147,0,4294.102539,4300.641113,4231.025879,3886.794922,4359.487305,4630.256348,4275.897461,4415.512695,4405.384766,4310.897461,4523.205078,4331.794922,4578.333496,4481.410156,2825,2,45,,,,0,4,0,4,2,0,0,1,4,1,0,4,1,4,4,0,,,,,,,,,,,,,,,,,,,,,,,,,,,,,,,,,,,,,,,,,,,,,,,,,,,,,,,,,,,
1782732801,1782732801,148,0,4305.897461,4301.153809,4240.128418,3908.076904,4359.102539,4630,4281.282227,4420.512695,4399.230957,4307.563965,4531.922852,4332.05127,4558.461426,4499.358887,2807,2,45,,,,0,4,0,4,2,0,0,1,4,1,0,4,1,4,4,0,,,,,,,,,,,,,,,,,,,,,,,,,,,,,,,,,,,,,,,,,,,,,,,,,,,,,,,,,,,
1782732801,1782732801,149,0,4315.512695,4299.743652,4245.384766,3917.564209,4358.333496,4635.384766,4291.025879,4429.230957,4394.487305,4306.794922,4535.897461,4331.153809,4538.461426,4510.512695,192,2,45,,,,0,4,0,4,2,0,0,1,4,1,0,4,1,4,4,0,,,,,,,,,,,,,,,,,,,,,,,,,,,,,,,,,,,,,,,,,,,,,,,,,,,,,,,,,,,
1782732801,1782732801,150,0,4320.641113,4297.94873,4245.897461,3914.230713,4358.077148,4644.230957,4303.077148,4440.769043,4393.461426,4310.256348,4533.589844,4331.153809,4533.846191,4511.282227,2247,2,45,,,,0,4,0,4,2,0,0,1,4,1,0,4,1,4,4,0,,,,,,,,,,,,,,,,,,,,,,,,,,,,,,,,,,,,,,,,,,,,,,,,,,,,,,,,,,,
1782732801,1782732801,151,0,4321.153809,4296.922852,4243.333496,3904.743652,4359.102539,4651.538574,4313.717773,4450.256348,4394.487305,4315.641113,4521.282227,4332.692383,4548.846191,4501.922852,2825,2,45,,,,0,4,0,4,2,0,0,1,4,1,0,4,1,4,4,0,,,,,,,,,,,,,,,,,,,,,,,,,,,,,,,,,,,,,,,,,,,,,,,,,,,,,,,,,,,
1782732801,1782732801,152,0,4319.743652,4297.307617,4240.897461,3898.589844,4361.410156,4653.974121,4319.615234,4452.563965,4395,4318.846191,4497.692383,4333.846191,4575.256348,4486.794922,2807,2,45,,,,0,4,0,4,2,0,0,1,4,1,0,4,1,4,4,0,,,,,,,,,,,,,,,,,,,,,,,,,,,,,,,,,,,,,,,,,,,,,,,,19,0,0.244058,-0.048523,0.713623,0.654846,-0.411183,0.886217,-0.029911,-23.321671,-55.400669,-6.705666
1782732801,1782732801,153,0,4321.410156,4298.974121,4243.205078,3903.589844,4362.94873,4652.05127,4320.384766,4447.94873,4393.205078,4317.820313,4471.153809,4332.692383,4602.179688,4475,192,2,45,,,,0,4,0,4,2,0,0,1,4,1,0,4,1,4,4,0,,,,,,,,,,,,,,,,,,,,,,,,,,,,,,,,,,,,,,,,,,,,,,,,,,,,,,,,,,,
1782732801,1782732801,154,0,4331.410156,4301.025879,4254.230957,3922.435791,4361.666504,4650.128418,4320.384766,4442.179688,4390.256348,4315,4460.641113,4329.743652,4627.692383,4476.538574,2247,2,45,,,,0,4,0,4,2,0,0,1,4,1,0,4,1,4,4,0,,,,,,,,,,,,,,,,,,,,,,,,,,,,,,,,,,,,,,,,,,,,,,,,,,,,,,,,,,,
1782732801,1782732801,155,0,4350.769043,4302.94873,4274.615234,3951.025635,4356.922852,4651.794922,4324.358887,4442.692383,4387.692383,4314.743652,4483.205078,4328.077148,4658.974121,4495.384766,2825,2,45,,,,0,4,0,4,2,0,0,1,4,1,0,4,1,4,4,0,,,,,,,,,,,,,,,,,,,,,,,,,,,,,,,,,,,,,,,,,,,,,,,,,,,,,,,,,,,
1782732801,1782732801,156,0,4373.974121,4303.846191,4299.102539,3978.461426,4351.282227,4657.179688,4334.102539,4453.461426,4387.179688,4319.615234,4537.563965,4330.769043,4700.769043,4523.205078,2807,2,45,,,,0,4,0,4,2,0,0,1,4,1,0,4,1,4,4,0,,,,,,,,,,,,,,,,,,,,,,,,,,,,,,,,,,,,,,,,,,,,,,,,,,,,,,,,,,,
1782732801,1782732801,157,0,4390.641113,4303.077148,4318.205078,3990.769287,4347.820313,4661.666504,4346.282227,4471.922852,4389.102539,4328.077148,4598.077148,4337.436035,4745.256348,4543.077148,192,2,45,,,,0,4,0,4,2,0,0,1,4,1,0,4,1,4,4,0,,,,,,,,,,,,,,,,,,,,,,,,,,,,,,,,,,,,,,,,,,,,,,,,,,,,,,,,,,,
1782732801,1782732801,158,0,4391.025879,4301.153809,4322.179688,3979.487061,4347.94873,4660.897461,4354.871582,4490.384766,4392.820313,4334.871582,4629.487305,4344.615234,4772.820313,4540.897461,2247,2,45,,,,0,4,0,4,2,0,0,1,4,1,0,4,1,4,4,0,,,,,,,,,,,,,,,,,,,,,,,,,,,,,,,,,,,,,,,,,,,,,,,,,,,,,,,,,,,
1782732801,1782732801,159,0,4373.205078,4299.358887,4308.974121,3949.358887,4349.871582,4655.128418,4355,4499.615234,4396.025879,4335,4610.769043,4347.307617,4768.333496,4516.794922,2825,2,45,,,,0,4,0,4,2,0,0,1,4,1,0,4,1,4,4,0,,,,,,,,,,,,,,,,,,,,,,,,,,,,,,,,,,,,,,,,,,,,,,,,,,,,,,,,,,,
1782732801,1782732801,160,0,4347.307617,4298.589844,4287.179688,3918.333252,4351.025879,4649.487305,4346.025879,4494.871582,4396.282227,4327.563965,4551.410156,4343.717773,4738.333496,4485.512695,2807,2,45,,,,0,4,0,4,2,0,0,1,4,1,0,4,1,4,4,0,,,,,,,,,,,,,,,,,,,,,,,,,,,,,,,,,,,,,,,,,,,,,,,,20,0,0.228384,-0.046021,0.716614,0.65741,-0.40337,0.901843,-0.050421,-24.55617,-55.177269,-6.768433
1782732801,1782732801,161,0,4330.769043,4299.230957,4272.307617,3906.153809,4350.384766,4650.512695,4332.05127,4478.333496,4393.205078,4316.666504,4486.666504,4336.538574,4710.641113,4467.307617,192,2,45,,,,0,4,0,4,2,0,0,1,4,1,0,4,1,4,4,0,,,,,,,,,,,,,,,,,,,,,,,,,,,,,,,,,,,,,,,,,,,,,,,,,,,,,,,,,,,
1782732801,1782732801,162,0,4336.666504,4300.641113,4276.666504,3920.128174,4349.871582,4660,4318.974121,4457.94873,4389.615234,4308.974121,4452.820313,4331.025879,4716.282227,4474.102539,2247,2,45,,,,0,4,0,4,2,0,0,1,4,1,0,4,1,4,4,0,,,,,,,,,,,,,,,,,,,,,,,,,,,,,,,,,,,,,,,,,,,,,,,,,,,,,,,,,,,
1782732801,1782732801,163,0,4362.436035,4302.179688,4298.846191,3949.871826,4352.179688,4674.230957,4310.641113,4442.563965,4388.846191,4307.820313,4463.077148,4330.512695,4763.717773,4502.563965,2825,2,45,,,,0,4,0,4,2,0,0,1,4,1,0,4,1,4,4,0,,,,,,,,,,,,,,,,,,,,,,,,,,,,,,,,,,,,,,,,,,,,,,,,,,,,,,,,,,,
1782732801,1782732801,164,0,4390.128418,4302.94873,4324.230957,3974.743652,4358.077148,4686.153809,4306.666504,4438.077148,4392.94873,4310.769043,4500.769043,4334.358887,4832.05127,4535.769043,2807,2,45,,,,0,4,0,4,2,0,0,1,4,1,0,4,1,4,4,0,,,,,,,,,,,,,,,,,,,,,,,,,,,,,,,,,,,,,,,,,,,,,,,,,,,,,,,,,,,
1782732801,1782732801,165,0,4399.230957,4302.563965,4335.897461,3980.897461,4365.128418,4691.153809,4303.333496,4445.512695,4401.538574,4311.538574,4537.307617,4338.717773,4888.333496,4554.230957,192,2,45,,,,0,4,0,4,2,0,0,1,4,1,0,4,1,4,4,0,,,,,,,,,,,,,,,,,,,,,,,,,,,,,,,,,,,,,,,,,,,,,,,,,,,,,,,,,,,
1782732801,1782732801,166,0,4383.205078,4301.410156,4328.589844,3970.128174,4369.871582,4689.102539,4298.077148,4461.666504,4412.692383,4306.538574,4555,4340.128418,4914.230957,4549.615234,2247,2,45,,,,0,4,0,4,2,0,0,1,4,1,0,4,1,4,4,0,,,,,,,,,,,,,,,,,,,,,,,,,,,,,,,,,,,,,,,,,,,,,,,,,,,,,,,,,,,
1782732801,1782732801,167,0,4354.615234,4300.512695,4312.563965,3956.410156,4370.641113,4683.974121,4291.922852,4480.769043,4423.333496,4298.333496,4555.512695,4337.94873,4918.333496,4529.487305,2825,2,45,,,,0,4,0,4,2,0,0,1,4,1,0,4,1,4,4,0,,,,,,,,,,,,,,,,,,,,,,,,,,,,,,,,,,,,,,,,,,,,,,,,,,,,,,,,,,,
1782732801,1782732801,168,0,4333.974121,4301.153809,4303.846191,3952.307617,4368.589844,4680.897461,4288.846191,4495.897461,4429.871582,4292.563965,4549.743652,4334.230957,4923.205078,4509.743652,2807,2,45,,,,0,4,0,4,2,0,0,1,4,1,0,4,1,4,4,0,,,,,,,,,,,,,,,,,,,,,,,,,,,,,,,,,,,,,,,,,,,,,,,,21,0,0.21773,-0.046021,0.71875,0.658691,-0.399463,0.8911,-0.070932,-25.817219,-54.992874,-6.64159
1782732801,1782732801,169,0,4332.179688,4302.94873,4309.358887,3958.846191,4366.282227,4682.436035,4293.077148,4502.179688,4431.282227,4292.179688,4543.333496,4331.282227,4941.794922,4501.666504,192,2,45,,,,0,4,0,4,2,0,0,1,4,1,0,4,1,4,4,0,,,,,,,,,,,,,,,,,,,,,,,,,,,,,,,,,,,,,,,,,,,,,,,,,,,,,,,,,,,
1782732801,1782732801,170,0,4343.077148,4304.743652,4322.436035,3968.205078,4365.897461,4687.94873,4305.256348,4499.102539,4430.384766,4295.256348,4534.871582,4330.256348,4966.410156,4504.743652,2247,2,45,,,,0,4,0,4,2,0,0,1,4,1,0,4,1,4,4,0,,,,,,,,,,,,,,,,,,,,,,,,,,,,,,,,,,,,,,,,,,,,,,,,,,,,,,,,,,,
1782732801,1782732801,171,0,4352.563965,4305.256348,4331.153809,3973.718018,4367.692383,4693.589844,4322.179688,4491.794922,4432.436035,4297.692383,4524.871582,4330.769043,4978.333496,4511.153809,2825,2,45,,,,0,4,0,4,2,0,0,1,4,1,0,4,1,4,4,0,,,,,,,,,,,,,,,,,,,,,,,,,,,,,,,,,,,,,,,,,,,,,,,,,,,,,,,,,,,
1782732801,1782732801,172,0,4352.692383,4303.974121,4330.769043,3977.05127,4370.128418,4696.538574,4339.487305,4488.717773,4440.769043,4297.307617,4521.025879,4332.563965,4965.641113,4515.769043,2807,2,45,,,,0,4,0,4,2,0,0,1,4,1,0,4,1,4,4,0,,,,,,,,,,,,,,,,,,,,,,,,,,,,,,,,,,,,,,,,,,,,,,,,,,,,,,,,,,,
1782732801,1782732801,173,0,4348.077148,4301.666504,4328.717773,3985,4371.666504,4695.897461,4352.94873,4495.769043,4453.077148,4296.410156,4533.461426,4335.769043,4931.666504,4520.641113,192,2,45,,,,0,4,0,4,2,0,0,1,4,1,0,4,1,4,4,0,,,,,,,,,,,,,,,,,,,,,,,,,,,,,,,,,,,,,,,,,,,,,,,,,,,,,,,,,,,
1782732801,1782732801,174,0,4348.461426,4299.358887,4334.102539,4000.384521,4371.794922,4692.820313,4359.230957,4511.025879,4461.794922,4299.102539,4562.436035,4339.871582,4889.358887,4530.256348,2247,2,45,,,,0,4,0,4,2,0,0,1,4,1,0,4,1,4,4,0,,,,,,,,,,,,,,,,,,,,,,,,,,,,,,,,,,,,,,,,,,,,,,,,,,,,,,,,,,,
1782732801,1782732801,175,0,4357.94873,4298.077148,4348.333496,4016.538574,4371.410156,4689.871582,4357.820313,4525.897461,4458.974121,4307.05127,4593.461426,4343.077148,4848.974121,4543.077148,2825,2,45,,,,0,4,0,4,2,0,0,1,4,1,0,4,1,4,4,0,,,,,,,,,,,,,,,,,,,,,,,,,,,,,,,,,,,,,,,,,,,,,,,,,,,,,,,,,,,
1782732801,1782732801,176,0,4369.743652,4298.461426,4361.922852,4022.692383,4371.282227,4689.743652,4352.436035,4531.538574,4443.333496,4317.820313,4605,4343.846191,4814.230957,4551.666504,2807,2,45,,,,0,4,0,4,2,0,0,1,4,1,0,4,1,4,4,0,,,,,,,,,,,,,,,,,,,,,,,,,,,,,,,,,,,,,,,,,,,,,,,,22,0,0.206489,-0.046997,0.720825,0.659973,-0.35307,0.949213,-0.076792,-27.035498,-54.876923,-6.577431
1782732801,1782732801,177,0,4372.307617,4300.128418,4363.077148,4013.076904,4371.282227,4693.333496,4350.128418,4525.641113,4422.05127,4326.794922,4585.512695,4341.538574,4786.922852,4548.333496,192,2,45,,,,0,4,0,4,2,0,0,1,4,1,0,4,1,4,4,0,,,,,,,,,,,,,,,,,,,,,,,,,,,,,,,,,,,,,,,,,,,,,,,,,,,,,,,,,,,
1782732801,1782732801,178,0,4359.358887,4301.794922,4347.563965,3991.538574,4370.897461,4699.615234,4356.922852,4512.05127,4405.512695,4331.794922,4545.897461,4337.05127,4772.179688,4531.922852,2247,2,45,,,,0,4,0,4,2,0,0,1,4,1,0,4,1,4,4,0,,,,,,,,,,,,,,,,,,,,,,,,,,,,,,,,,,,,,,,,,,,,,,,,,,,,,,,,,,,
1782732801,1782732801,179,0,4336.666504,4302.436035,4323.205078,3970.769287,4369.615234,4705.769043,4373.589844,4498.205078,4400.897461,4334.615234,4513.333496,4332.436035,4776.153809,4508.846191,2825,2,45,,,,0,4,0,4,2,0,0,1,4,1,0,4,1,4,4,0,,,,,,,,,,,,,,,,,,,,,,,,,,,,,,,,,,,,,,,,,,,,,,,,,,,,,,,,,,,
1782732801,1782732801,180,0,4318.717773,4301.922852,4305.512695,3964.743652,4368.589844,4708.846191,4395.128418,4491.025879,4408.589844,4338.461426,4510.897461,4330.128418,4800,4490.641113,2807,2,45,,,,0,4,0,4,2,0,0,1,4,1,0,4,1,4,4,0,,,,,,,,,,,,,,,,,,,,,,,,,,,,,,,,,,,,,,,,,,,,,,,,,,,,,,,,,,,
1782732801,1782732801,181,0,4318.461426,4301.282227,4306.538574,3979.230713,4368.205078,4707.820313,4413.717773,4494.230957,4423.717773,4344.615234,4538.974121,4331.153809,4834.615234,4486.922852,192,2,45,,,,0,4,0,4,2,0,0,1,4,1,0,4,1,4,4,0,,,,,,,,,,,,,,,,,,,,,,,,,,,,,,,,,,,,,,,,,,,,,,,,,,,,,,,,,,,
1782732801,1782732801,182,0,4336.538574,4301.282227,4326.153809,4005.641113,4368.333496,4704.487305,4423.461426,4505.128418,4439.615234,4350.256348,4575.384766,4334.358887,4865.769043,4498.974121,2247,2,45,,,,0,4,0,4,2,0,0,1,4,1,0,4,1,4,4,0,,,,,,,,,,,,,,,,,,,,,,,,,,,,,,,,,,,,,,,,,,,,,,,,,,,,,,,,,,,
1782732801,1782732801,183,0,4360,4302.05127,4351.410156,4024.487061,4368.333496,4701.794922,4423.077148,4517.179688,4450.769043,4352.436035,4595,4337.436035,4882.692383,4517.692383,2825,2,45,,,,0,4,0,4,2,0,0,1,4,1,0,4,1,4,4,0,,,,,,,,,,,,,,,,,,,,,,,,,,,,,,,,,,,,,,,,,,,,,,,,,,,,,,,,,,,
1782732801,1782732801,184,0,4372.307617,4302.94873,4365.512695,4019.871826,4367.692383,4701.922852,4415.897461,4523.974121,4453.974121,4350,4589.358887,4338.589844,4883.717773,4529.358887,2807,2,45,,,,0,4,0,4,2,0,0,1,4,1,0,4,1,4,4,0,,,,,,,,,,,,,,,,,,,,,,,,,,,,,,,,,,,,,,,,,,,,,,,,23,0,0.186196,-0.049744,0.723755,0.662598,-0.311561,0.959468,-0.068001,-28.348614,-54.572563,-6.786354
1782732801,1782732801,185,0,4366.538574,4303.077148,4361.025879,3993.461426,4366.922852,4704.358887,4407.563965,4523.974121,4449.615234,4345.641113,4571.025879,4337.820313,4873.461426,4525.384766,192,2,45,,,,0,4,0,4,2,0,0,1,4,1,0,4,1,4,4,0,,,,,,,,,,,,,,,,,,,,,,,,,,,,,,,,,,,,,,,,,,,,,,,,,,,,,,,,,,,
1782732801,1782732801,186,0,4350.128418,4302.179688,4345.128418,3967.94873,4366.538574,4706.922852,4402.94873,4520.897461,4439.743652,4343.205078,4557.94873,4336.794922,4855.897461,4509.230957,2247,2,45,,,,0,4,0,4,2,0,0,1,4,1,0,4,1,4,4,0,,,,,,,,,,,,,,,,,,,,,,,,,,,,,,,,,,,,,,,,,,,,,,,,,,,,,,,,,,,
1782732801,1782732801,187,0,4337.692383,4301.025879,4332.94873,3972.307617,4366.794922,4707.179688,4403.589844,4520.897461,4427.307617,4344.230957,4556.538574,4336.282227,4829.615234,4493.077148,2825,2,45,,,,0,4,0,4,2,0,0,1,4,1,0,4,1,4,4,0,,,,,,,,,,,,,,,,,,,,,,,,,,,,,,,,,,,,,,,,,,,,,,,,,,,,,,,,,,,
1782732801,1782732801,188,0,4338.333496,4300.897461,4334.615234,4021.153809,4366.538574,4704.230957,4407.820313,4526.922852,4415.512695,4347.692383,4558.974121,4336.153809,4792.179688,4487.436035,2807,2,45,,,,0,4,0,4,2,0,0,1,4,1,0,4,1,4,4,0,,,,,,,,,,,,,,,,,,,,,,,,,,,,,,,,,,,,,,,,,,,,,,,,,,,,,,,,,,,
1782732801,1782732801,189,0,4348.974121,4301.794922,4346.794922,4103.205078,4364.871582,4699.102539,4412.307617,4536.282227,4405.769043,4350.897461,4552.94873,4335.512695,4746.410156,4493.077148,192,2,45,,,,0,4,0,4,2,0,0,1,4,1,0,4,1,4,4,0,,,,,,,,,,,,,,,,,,,,,,,,,,,,,,,,,,,,,,,,,,,,,,,,,,,,,,,,,,,
1782732801,1782732801,190,0,4358.205078,4302.94873,4357.307617,4187.307617,4361.410156,4693.717773,4414.358887,4542.692383,4397.563965,4352.820313,4535.384766,4335,4702.307617,4501.538574,2247,2,45,,,,0,4,0,4,2,0,0,1,4,1,0,4,1,4,4,0,,,,,,,,,,,,,,,,,,,,,,,,,,,,,,,,,,,,,,,,,,,,,,,,,,,,,,,,,,,
1782732801,1782732801,191,0,4357.563965,4303.333496,4356.025879,4242.179688,4356.666504,4689.743652,4414.102539,4541.538574,4389.358887,4354.230957,4517.179688,4335.769043,4672.307617,4503.717773,2825,2,45,,,,0,4,0,4,2,0,0,1,4,1,0,4,1,4,4,0,,,,,,,,,,,,,,,,,,,,,,,,,,,,,,,,,,,,,,,,,,,,,,,,,,,,,,,,,,,
1782732801,1782732801,192,0,4349.358887,4302.820313,4343.974121,4255.512695,4352.436035,4687.94873,4413.333496,4535,4381.538574,4356.538574,4513.974121,4339.230957,4662.307617,4498.461426,2807,2,45,,,,0,4,0,4,2,0,0,1,4,1,0,4,1,4,4,0,,,,,,,,,,,,,,,,,,,,,,,,,,,,,,,,,,,,,,,,,,,,,,,,24,0,0.172312,-0.052246,0.725281,0.66449,-0.280308,0.909657,-0.068001,-29.597086,-54.281971,-6.824386
1782732801,1782732801,193,0,4344.743652,4302.436035,4331.922852,4238.077148,4350.641113,4688.077148,4413.717773,4530.128418,4376.282227,4361.153809,4531.538574,4344.871582,4666.282227,4491.666504,192,2,45,,,,0,4,0,4,2,0,0,1,4,1,0,4,1,4,4,0,,,,,,,,,,,,,,,,,,,,,,,,,,,,,,,,,,,,,,,,,,,,,,,,,,,,,,,,,,,
1782732801,1782732801,194,0,4352.820313,4303.205078,4331.538574,4212.307617,4351.410156,4688.589844,4414.871582,4534.102539,4376.410156,4368.077148,4556.794922,4351.538574,4670.128418,4489.102539,2247,2,45,,,,0,4,0,4,2,0,0,1,4,1,0,4,1,4,4,0,,,,,,,,,,,,,,,,,,,,,,,,,,,,,,,,,,,,,,,,,,,,,,,,,,,,,,,,,,,
1782732801,1782732801,195,0,4371.794922,4304.487305,4344.743652,4194.487305,4353.589844,4687.820313,4416.025879,4547.692383,4382.179688,4375.897461,4566.410156,4357.563965,4661.794922,4490.512695,2825,2,45,,,,0,4,0,4,2,0,0,1,4,1,0,4,1,4,4,0,,,,,,,,,,,,,,,,,,,,,,,,,,,,,,,,,,,,,,,,,,,,,,,,,,,,,,,,,,,
1782732801,1782732801,196,0,4389.615234,4305,4362.820313,4185.256348,4355,4685.256348,4416.922852,4563.974121,4389.487305,4382.307617,4547.179688,4361.794922,4638.974121,4491.538574,2807,2,45,,,,0,4,0,4,2,0,0,1,4,1,0,4,1,4,4,0,,,,,,,,,,,,,,,,,,,,,,,,,,,,,,,,,,,,,,,,,,,,,,,,,,,,,,,,,,,
1782732801,1782732801,197,0,4393.077148,4304.230957,4371.794922,4174.743652,4355.128418,4681.538574,4417.563965,4570.769043,4392.436035,4385.641113,4508.589844,4363.717773,4610.384766,4488.589844,192,2,45,,,,0,4,0,4,2,0,0,1,4,1,0,4,1,4,4,0,,,,,,,,,,,,,,,,,,,,,,,,,,,,,,,,,,,,,,,,,,,,,,,,,,,,,,,,,,,
1782732801,1782732801,198,0,4377.692383,4302.692383,4363.205078,4156.794922,4354.102539,4676.922852,4416.025879,4558.717773,4387.94873,4384.358887,4478.205078,4362.179688,4588.461426,4482.179688,2247,2,45,,,,0,4,0,4,2,0,0,1,4,1,0,4,1,4,4,0,,,,,,,,,,,,,,,,,,,,,,,,,,,,,,,,,,,,,,,,,,,,,,,,,,,,,,,,,,,
1782732801,1782732801,199,0,4351.666504,4302.05127,4340.384766,4136.538574,4353.205078,4671.922852,4410.897461,4531.282227,4379.487305,4378.846191,4481.025879,4357.94873,4582.436035,4476.410156,2825,2,45,,,,0,4,0,4,2,0,0,1,4,1,0,4,1,4,4,0,,,,,,,,,,,,,,,,,,,,,,,,,,,,,,,,,,,,,,,,,,,,,,,,,,,,,,,,,,,
1782732801,1782732801,200,0,4330.128418,4302.436035,4316.666504,4125.897461,4352.307617,4666.282227,4403.589844,4506.153809,4375.512695,4370.897461,4520.128418,4353.717773,4593.333496,4477.563965,2807,2,45,,,,0,4,0,4,2,0,0,1,4,1,0,4,1,4,4,0,,,,,,,,,,,,,,,,,,,,,,,,,,,,,,,,,,,,,,,,,,,,,,,,25,0,0.159802,-0.055847,0.726196,0.666321,-0.277866,0.930656,-0.078745,-30.670712,-53.937107,-6.97528
1782732801,1782732801,201,0,4325.384766,4303.461426,4306.922852,4129.487305,4351.025879,4660.256348,4398.974121,4504.871582,4382.179688,4364.358887,4572.692383,4353.461426,4615.641113,4490,192,2,45,,,,0,4,0,4,2,0,0,1,4,1,0,4,1,4,4,0,,,,,,,,,,,,,,,,,,,,,,,,,,,,,,,,,,,,,,,,,,,,,,,,,,,,,,,,,,,
1782732801,1782732801,202,0,4338.333496,4303.974121,4316.666504,4138.717773,4349.615234,4653.717773,4400.384766,4534.615234,4396.282227,4362.563965,4606.666504,4358.717773,4641.794922,4512.179688,2247,2,45,,,,0,4,0,4,2,0,0,1,4,1,0,4,1,4,4,0,,,,,,,,,,,,,,,,,,,,,,,,,,,,,,,,,,,,,,,,,,,,,,,,,,,,,,,,,,,
1782732801,1782732801,203,0,4359.487305,4303.589844,4339.358887,4139.487305,4348.717773,4647.179688,4405.512695,4578.589844,4405,4365.128418,4603.974121,4367.05127,4665.641113,4535.512695,2825,2,45,,,,0,4,0,4,2,0,0,1,4,1,0,4,1,4,4,0,,,,,,,,,,,,,,,,,,,,,,,,,,,,,,,,,,,,,,,,,,,,,,,,,,,,,,,,,,,
1782732801,1782732801,204,0,4376.025879,4303.205078,4361.794922,4127.307617,4349.487305,4641.666504,4406.538574,4607.179688,4395.641113,4367.820313,4573.077148,4373.717773,4682.692383,4548.077148,2807,2,45,,,,0,4,0,4,2,0,0,1,4,1,0,4,1,4,4,0,,,,,,,,,,,,,,,,,,,,,,,,,,,,,,,,,,,,,,,,,,,,,,,,,,,,,,,,,,,
1782732801,1782732801,205,0,4380.384766,4302.94873,4373.205078,4110.512695,4351.282227,4638.205078,4396.666504,4599.743652,4365.256348,4366.922852,4540.512695,4375.384766,4689.615234,4544.487305,192,2,45,,,,0,4,0,4,2,0,0,1,4,1,0,4,1,4,4,0,,,,,,,,,,,,,,,,,,,,,,,,,,,,,,,,,,,,,,,,,,,,,,,,,,,,,,,,,,,
1782732801,1782732801,206,0,4374.102539,4302.94873,4370.897461,4101.666504,4352.820313,4637.307617,4375.512695,4561.153809,4322.820313,4361.922852,4529.102539,4371.922852,4682.94873,4529.615234,2247,2,45,,,,0,4,0,4,2,0,0,1,4,1,0,4,1,4,4,0,,,,,,,,,,,,,,,,,,,,,,,,,,,,,,,,,,,,,,,,,,,,,,,,,,,,,,,,,,,
1782732801,1782732801,207,0,4364.102539,4302.692383,4359.358887,4105.384766,4352.692383,4636.922852,4350.641113,4516.538574,4281.922852,4356.410156,4541.794922,4366.794922,4661.666504,4515.128418,2825,2,45,,,,0,4,0,4,2,0,0,1,4,1,0,4,1,4,4,0,,,,,,,,,,,,,,,,,,,,,,,,,,,,,,,,,,,,,,,,,,,,,,,,,,,,,,,,,,,
1782732801,1782732801,208,0,4357.307617,4302.179688,4345.641113,4115.256348,4351.153809,4633.846191,4333.205078,4492.307617,4252.820313,4355.384766,4562.692383,4363.589844,4630.384766,4509.743652,2807,2,45,,,,0,4,0,4,2,0,0,1,4,1,0,4,1,4,4,0,,,,,,,,,,,,,,,,,,,,,,,,,,,,,,,,,,,,,,,,,,,,,,,,26,0,0,-0.002869,0.442749,1.466309,-0.275913,0.978513,-0.106092,40.663029,-52.643398,-11.261086
1782732801,1782732801,209,0,4355,4301.922852,4335.128418,4121.025879,4349.871582,4625.769043,4329.615234,4497.94873,4236.922852,4361.282227,4572.05127,4363.717773,4599.230957,4513.333496,192,2,45,,,,0,4,0,4,2,0,0,1,4,1,0,4,1,4,4,0,,,,,,,,,,,,,,,,,,,,,,,,,,,,,,,,,,,,,,,,,,,,,,,,,,,,,,,,,,,
1782732801,1782732801,210,0,4353.205078,4302.05127,4329.358887,4118.589844,4350.128418,4614.743652,4338.461426,4523.205078,4229.871582,4372.307617,4561.282227,4365.897461,4578.589844,4518.077148,2247,2,45,,,,0,4,0,4,2,0,0,1,4,1,0,4,1,4,4,0,,,,,,,,,,,,,,,,,,,,,,,,,,,,,,,,,,,,,,,,,,,,,,,,,,,,,,,,,,,
1782732801,1782732801,211,0,4347.94873,4302.692383,4326.922852,4112.692383,4351.666504,4604.615234,4350.769043,4547.692383,4226.410156,4383.846191,4539.230957,4367.307617,4573.974121,4516.025879,2825,2,45,,,,0,4,0,4,2,0,0,1,4,1,0,4,1,4,4,0,,,,,,,,,,,,,,,,,,,,,,,,,,,,,,,,,,,,,,,,,,,,,,,,,,,,,,,,,,,
1782732801,1782732801,212,0,4340,4303.333496,4326.922852,4111.282227,4353.205078,4598.717773,4357.179688,4556.922852,4223.333496,4391.410156,4522.563965,4366.666504,4583.461426,4507.05127,2807,2,45,,,,0,4,0,4,2,0,0,1,4,1,0,4,1,4,4,0,,,,,,,,,,,,,,,,,,,,,,,,,,,,,,,,,,,,,,,,,,,,,,,,,,,,,,,,,,,
1782732801,1782732801,213,0,4334.487305,4303.846191,4329.871582,4116.666504,4353.333496,4597.05127,4353.846191,4550.256348,4220.769043,4393.333496,4521.922852,4364.615234,4599.102539,4498.974121,192,2,45,,,,0,4,0,4,2,0,0,1,4,1,0,4,1,4,4,0,,,,,,,,,,,,,,,,,,,,,,,,,,,,,,,,,,,,,,,,,,,,,,,,,,,,,,,,,,,
1782732801,1782732801,214,0,4335.512695,4303.846191,4336.282227,4123.589844,4352.05127,4596.922852,4344.871582,4538.461426,4220.384766,4391.153809,4534.358887,4363.077148,4610.897461,4499.615234,2247,2,45,,,,0,4,0,4,2,0,0,1,4,1,0,4,1,4,4,0,,,,,,,,,,,,,,,,,,,,,,,,,,,,,,,,,,,,,,,,,,,,,,,,,,,,,,,,,,,
1782732801,1782732801,215,0,4341.153809,4303.846191,4344.230957,4123.077148,4351.025879,4595.769043,4338.077148,4533.461426,4223.589844,4388.077148,4548.077148,4363.077148,4613.077148,4510.769043,2825,2,45,,,,0,4,0,4,2,0,0,1,4,1,0,4,1,4,4,0,,,,,,,,,,,,,,,,,,,,,,,,,,,,,,,,,,,,,,,,,,,,,,,,,,,,,,,,,,,
1782732801,1782732801,216,0,4345.128418,4303.974121,4348.974121,4111.666504,4351.025879,4592.820313,4338.589844,4538.846191,4229.487305,4386.153809,4553.205078,4364.615234,4606.794922,4525.641113,2807,2,45,,,,0,4,0,4,2,0,0,1,4,1,0,4,1,4,4,0,,,,,,,,,,,,,,,,,,,,,,,,,,,,,,,,,,,,,,,,,,,,,,,,27,0,0.139421,-0.057861,0.728943,0.667725,-0.277866,0.946771,-0.08314,32.313393,-52.545723,-11.101644
1782732801,1782732801,217,0,4341.666504,4304.358887,4347.179688,4093.974365,4352.179688,4590.128418,4345.256348,4548.205078,4235.384766,4385.384766,4547.05127,4366.538574,4598.589844,4534.487305,192,2,45,,,,0,4,0,4,2,0,0,1,4,1,0,4,1,4,4,0,,,,,,,,,,,,,,,,,,,,,,,,,,,,,,,,,,,,,,,,,,,,,,,,,,,,,,,,,,,
1782732801,1782732801,218,0,4330.641113,4304.871582,4339.743652,4080,4352.692383,4589.743652,4351.794922,4553.205078,4239.487305,4384.230957,4534.230957,4367.692383,4595.641113,4532.179688,2247,2,45,,,,0,4,0,4,2,0,0,1,4,1,0,4,1,4,4,0,,,,,,,,,,,,,,,,,,,,,,,,,,,,,,,,,,,,,,,,,,,,,,,,,,,,,,,,,,,
1782732801,1782732801,219,0,4317.436035,4304.871582,4332.179688,4077.05127,4350.897461,4592.692383,4354.230957,4551.794922,4241.922852,4381.538574,4522.692383,4367.436035,4602.563965,4522.05127,2825,2,45,,,,0,4,0,4,2,0,0,1,4,1,0,4,1,4,4,0,,,,,,,,,,,,,,,,,,,,,,,,,,,,,,,,,,,,,,,,,,,,,,,,,,,,,,,,,,,
1782732801,1782732801,220,0,4308.974121,4304.230957,4330.256348,4086.025635,4346.410156,4597.820313,4353.974121,4548.717773,4243.846191,4378.589844,4521.153809,4366.410156,4620,4514.102539,2807,2,45,,,,0,4,0,4,2,0,0,1,4,1,0,4,1,4,4,0,,,,,,,,,,,,,,,,,,,,,,,,,,,,,,,,,,,,,,,,,,,,,,,,,,,,,,,,,,,
1782732801,1782732801,221,0,4308.461426,4303.333496,4335.384766,4102.05127,4341.025879,4603.077148,4355.256348,4549.743652,4245.384766,4377.563965,4532.94873,4365.897461,4642.692383,4515.256348,192,2,45,,,,0,4,0,4,2,0,0,1,4,1,0,4,1,4,4,0,,,,,,,,,,,,,,,,,,,,,,,,,,,,,,,,,,,,,,,,,,,,,,,,,,,,,,,,,,,
1782732801,1782732801,222,0,4312.307617,4302.94873,4343.461426,4119.358887,4336.794922,4606.794922,4360.256348,4555.641113,4246.538574,4379.230957,4553.205078,4366.666504,4660.897461,4523.077148,2247,2,45,,,,0,4,0,4,2,0,0,1,4,1,0,4,1,4,4,0,,,,,,,,,,,,,,,,,,,,,,,,,,,,,,,,,,,,,,,,,,,,,,,,,,,,,,,,,,,
1782732801,1782732801,223,0,4314.102539,4303.205078,4348.589844,4133.846191,4334.743652,4608.974121,4367.692383,4562.94873,4247.436035,4381.794922,4570.128418,4369.102539,4665,4528.846191,2825,2,45,,,,0,4,0,4,2,0,0,1,4,1,0,4,1,4,4,0,,,,,,,,,,,,,,,,,,,,,,,,,,,,,,,,,,,,,,,,,,,,,,,,,,,,,,,,,,,
1782732801,1782732801,224,0,4311.922852,4303.717773,4349.230957,4143.846191,4334.102539,4610.897461,4374.615234,4567.820313,4249.230957,4383.333496,4575.384766,4372.307617,4653.974121,4526.794922,2807,2,45,,,,0,4,0,4,2,0,0,1,4,1,0,4,1,4,4,0,,,,,,,,,,,,,,,,,,,,,,,,,,,,,,,,,,,,,,,,,,,,,,,,28,0,0.128933,-0.058716,0.729797,0.668823,-0.230009,0.937981,-0.072397,24.865385,-52.357819,-11.091479
1782732801,1782732801,225,0,4310.512695,4304.102539,4348.717773,4147.307617,4333.461426,4613.333496,4379.358887,4568.589844,4251.282227,4383.461426,4569.615234,4375.256348,4637.05127,4520,192,2,45,,,,0,4,0,4,2,0,0,1,4,1,0,4,1,4,4,0,,,,,,,,,,,,,,,,,,,,,,,,,,,,,,,,,,,,,,,,,,,,,,,,,,,,,,,,,,,
1782732801,1782732801,226,0,4316.025879,4303.974121,4351.922852,4140.641113,4332.179688,4616.025879,4382.307617,4564.871582,4250.512695,4383.589844,4561.153809,4376.282227,4625.128418,4516.538574,2247,2,45,,,,0,4,0,4,2,0,0,1,4,1,0,4,1,4,4,0,,,,,,,,,,,,,,,,,,,,,,,,,,,,,,,,,,,,,,,,,,,,,,,,,,,,,,,,,,,
1782732801,1782732801,227,0,4326.794922,4303.077148,4358.589844,4118.461426,4330.641113,4618.205078,4384.230957,4557.820313,4244.487305,4384.230957,4557.820313,4374.871582,4619.615234,4519.358887,2825,2,45,,,,0,4,0,4,2,0,0,1,4,1,0,4,1,4,4,0,,,,,,,,,,,,,,,,,,,,,,,,,,,,,,,,,,,,,,,,,,,,,,,,,,,,,,,,,,,
1782732801,1782732801,228,0,4333.461426,4302.05127,4361.922852,4079.102539,4329.358887,4619.871582,4386.922852,4550,4233.589844,4382.94873,4560.256348,4371.153809,4609.358887,4523.846191,2807,2,45,,,,0,4,0,4,2,0,0,1,4,1,0,4,1,4,4,0,,,,,,,,,,,,,,,,,,,,,,,,,,,,,,,,,,,,,,,,,,,,,,,,,,,,,,,,,,,
1782732801,1782732801,229,0,4327.436035,4301.410156,4355.384766,4029.358887,4327.94873,4622.05127,4391.282227,4545.769043,4221.025879,4376.538574,4562.563965,4367.179688,4580.128418,4523.333496,192,2,45,,,,0,4,0,4,2,0,0,1,4,1,0,4,1,4,4,0,,,,,,,,,,,,,,,,,,,,,,,,,,,,,,,,,,,,,,,,,,,,,,,,,,,,,,,,,,,
1782732801,1782732801,230,0,4309.230957,4301.666504,4340.384766,3984.871826,4325.897461,4625.384766,4397.179688,4548.333496,4210.897461,4362.94873,4557.692383,4364.743652,4528.461426,4516.025879,2247,2,45,,,,0,4,0,4,2,0,0,1,4,1,0,4,1,4,4,0,,,,,,,,,,,,,,,,,,,,,,,,,,,,,,,,,,,,,,,,,,,,,,,,,,,,,,,,,,,
1782732801,1782732801,231,0,4289.358887,4302.820313,4326.538574,3961.923096,4322.563965,4630.128418,4403.461426,4556.666504,4204.743652,4342.05127,4541.666504,4364.871582,4464.743652,4506.153809,2825,2,45,,,,0,4,0,4,2,0,0,1,4,1,0,4,1,4,4,0,,,,,,,,,,,,,,,,,,,,,,,,,,,,,,,,,,,,,,,,,,,,,,,,,,,,,,,,,,,
1782732801,1782732801,232,0,4278.974121,4304.102539,4322.692383,3966.538574,4318.461426,4635.641113,4409.102539,4564.230957,4201.922852,4315.256348,4517.563965,4366.410156,4405,4497.94873,2807,2,45,,,,0,4,0,4,2,0,0,1,4,1,0,4,1,4,4,0,,,,,,,,,,,,,,,,,,,,,,,,,,,,,,,,,,,,,,,,,,,,,,,,29,0,0.117853,-0.064941,0.729126,0.671021,-0.22073,0.944817,-0.058723,17.995514,-52.05537,-10.915665
1782732801,1782732801,233,0,4280.256348,4304.487305,4328.846191,3989.487061,4313.589844,4641.794922,4413.461426,4563.461426,4200.769043,4286.794922,4495.897461,4367.179688,4360.641113,4493.717773,192,2,45,,,,0,4,0,4,2,0,0,1,4,1,0,4,1,4,4,0,,,,,,,,,,,,,,,,,,,,,,,,,,,,,,,,,,,,,,,,,,,,,,,,,,,,,,,,,,,
1782732801,1782732801,234,0,4288.333496,4303.589844,4338.846191,4011.538574,4308.461426,4648.846191,4415.769043,4553.077148,4199.102539,4263.974121,4490.128418,4366.153809,4334.487305,4493.846191,2247,2,45,,,,0,4,0,4,2,0,0,1,4,1,0,4,1,4,4,0,,,,,,,,,,,,,,,,,,,,,,,,,,,,,,,,,,,,,,,,,,,,,,,,,,,,,,,,,,,
1782732801,1782732801,235,0,4297.94873,4301.922852,4347.692383,4016.410156,4303.461426,4656.538574,4415.641113,4541.153809,4195.256348,4256.794922,4508.461426,4364.871582,4325.128418,4500,2825,2,45,,,,0,4,0,4,2,0,0,1,4,1,0,4,1,4,4,0,,,,,,,,,,,,,,,,,,,,,,,,,,,,,,,,,,,,,,,,,,,,,,,,,,,,,,,,,,,
1782732801,1782732801,236,0,4308.589844,4301.282227,4358.333496,4000.769287,4299.487305,4663.461426,4413.589844,4539.743652,4188.205078,4272.820313,4547.436035,4366.794922,4330.512695,4514.102539,2807,2,45,,,,0,4,0,4,2,0,0,1,4,1,0,4,1,4,4,0,,,,,,,,,,,,,,,,,,,,,,,,,,,,,,,,,,,,,,,,,,,,,,,,,,,,,,,,,,,
1782732801,1782732801,237,0,4322.436035,4302.436035,4376.410156,3973.461426,4297.692383,4668.589844,4411.666504,4554.615234,4178.461426,4312.307617,4593.846191,4373.205078,4347.436035,4535,192,2,45,,,,0,4,0,4,2,0,0,1,4,1,0,4,1,4,4,0,,,,,,,,,,,,,,,,,,,,,,,,,,,,,,,,,,,,,,,,,,,,,,,,,,,,,,,,,,,
1782732801,1782732801,238,0,4337.94873,4304.358887,4402.05127,3947.179443,4298.846191,4672.563965,4412.307617,4578.077148,4167.820313,4366.153809,4631.025879,4381.666504,4368.333496,4555.769043,2247,2,45,,,,0,4,0,4,2,0,0,1,4,1,0,4,1,4,4,0,,,,,,,,,,,,,,,,,,,,,,,,,,,,,,,,,,,,,,,,,,,,,,,,,,,,,,,,,,,
1782732801,1782732801,239,0,4347.179688,4305.256348,4424.871582,3927.05127,4302.436035,4677.179688,4416.666504,4592.692383,4157.563965,4417.94873,4641.794922,4386.922852,4382.307617,4565.128418,2825,2,45,,,,0,4,0,4,2,0,0,1,4,1,0,4,1,4,4,0,,,,,,,,,,,,,,,,,,,,,,,,,,,,,,,,,,,,,,,,,,,,,,,,,,,,,,,,,,,
1782732801,1782732801,240,0,4339.743652,4303.717773,4429.871582,3908.974365,4306.410156,4683.846191,4422.820313,4583.333496,4148.333496,4451.794922,4614.743652,4385,4381.282227,4554.358887,2807,2,45,,,,0,4,0,4,2,0,0,1,4,1,0,4,1,4,4,0,,,,,,,,,,,,,,,,,,,,,,,,,,,,,,,,,,,,,,,,,,,,,,,,30,0,0.111761,-0.067566,0.728271,0.672729,-0.212917,0.957026,-0.075815,11.812629,-51.866501,-10.840765
1782732801,1782732801,241,0,4313.461426,4300.256348,4410.384766,3886.153809,4307.820313,4690.897461,4427.179688,4550.769043,4140.769043,4461.025879,4554.102539,4376.025879,4368.717773,4524.615234,192,2,45,,,,0,4,0,4,2,0,0,1,4,1,0,4,1,4,4,0,,,,,,,,,,,,,,,,,,,,,,,,,,,,,,,,,,,,,,,,,,,,,,,,,,,,,,,,,,,
1782732801,1782732801,242,0,4280.256348,4297.563965,4378.077148,3858.076904,4305.512695,4694.615234,4427.05127,4513.461426,4135.897461,4451.794922,4485.769043,4364.743652,4362.820313,4490.128418,2247,2,45,,,,0,4,0,4,2,0,0,1,4,1,0,4,1,4,4,0,1,0,1,0,1,0,0,0,1,1,0,0,0,1,0,1,,,,,,,,,,,,,,,,,,,,,,,,,,,,,,,,,,,,,,,,,,,
1782732801,1782732802,243,0,4261.410156,4297.436035,4357.307617,3832.05127,4300.769043,4692.05127,4423.333496,4495.256348,4134.743652,4439.102539,4446.666504,4357.307617,4385.769043,4471.538574,2825,2,45,,,,0,4,0,4,2,0,0,1,4,1,0,4,1,4,4,0,,,,,,,,,,,,,,,,,,,,,,,,,,,,,,,,,,,,,,,,,,,,,,,,,,,,,,,,,,,
1782732802,1782732802,244,0,4272.179688,4300,4366.922852,3816.923096,4296.282227,4683.846191,4419.230957,4506.282227,4136.666504,4435.897461,4457.436035,4357.307617,4445.641113,4480.384766,2807,2,45,,,,0,4,0,4,2,0,0,1,4,1,0,4,1,4,4,0,,,,,,,,,,,,,,,,,,,,,,,,,,,,,,,,,,,,,,,,,,,,,,,,,,,,,,,,,,,
1782732802,1782732802,245,0,4307.307617,4303.205078,4402.820313,3813.589844,4294.230957,4673.846191,4417.436035,4533.461426,4139.358887,4444.102539,4503.077148,4363.333496,4524.230957,4509.871582,192,2,45,,,,0,4,0,4,2,0,0,1,4,1,0,4,1,4,4,0,,,,,,,,,,,,,,,,,,,,,,,,,,,,,,,,,,,,,,,,,,,,,,,,,,,,,,,,,,,
1782732802,1782732802,246,0,4343.077148,4305,4440.256348,3813.461426,4295,4666.794922,4417.563965,4549.615234,4139.615234,4454.358887,4541.538574,4370.128418,4587.436035,4537.820313,2247,2,45,,,,0,4,0,4,2,0,0,1,4,1,0,4,1,4,4,0,,,,,,,,,,,,,,,,,,,,,,,,,,,,,,,,,,,,,,,,,,,,,,,,,,,,,,,,,,,
1782732802,1782732802,247,0,4356.282227,4304.871582,4453.717773,3805.897461,4297.179688,4664.615234,4416.794922,4534.487305,4136.666504,4454.615234,4538.846191,4372.307617,4611.538574,4543.717773,2825,2,45,,,,0,4,0,4,2,0,0,1,4,1,0,4,1,4,4,0,,,,,,,,,,,,,,,,,,,,,,,,,,,,,,,,,,,,,,,,,,,,,,,,,,,,,,,,,,,
1782732802,1782732802,248,0,4342.94873,4303.333496,4438.333496,3787.307617,4299.102539,4665.384766,4413.589844,4492.05127,4132.179688,4439.743652,4498.589844,4368.846191,4602.179688,4524.743652,2807,2,45,,,,0,4,0,4,2,0,0,1,4,1,0,4,1,4,4,0,,,,,,,,,,,,,,,,,,,,,,,,,,,,,,,,,,,,,,,,,,,,,,,,31,0,0.100625,-0.076416,0.726135,0.675842,-0.203638,0.981443,-0.060188,6.331366,-51.579849,-10.690022
1782732802,1782732802,249,0,4319.615234,4301.922852,4412.05127,3763.846191,4300,4665.384766,4408.846191,4447.307617,4129.487305,4415.641113,4455,4363.333496,4586.922852,4496.922852,192,2,45,,,,0,4,0,4,2,0,0,1,4,1,0,4,1,4,4,0,,,,,,,,,,,,,,,,,,,,,,,,,,,,,,,,,,,,,,,,,,,,,,,,,,,,,,,,,,,
1782732802,1782732802,250,0,4305.769043,4301.794922,4397.563965,3744.871826,4300.128418,4662.436035,4406.282227,4427.820313,4131.666504,4393.717773,4437.94873,4360.384766,4589.871582,4480,2247,2,45,,,,0,4,0,4,2,0,0,1,4,1,0,4,1,4,4,0,,,,,,,,,,,,,,,,,,,,,,,,,,,,,,,,,,,,,,,,,,,,,,,,,,,,,,,,,,,
1782732802,1782732802,251,0,4306.282227,4302.692383,4402.94873,3734.871826,4300.512695,4656.922852,4408.589844,4442.179688,4138.589844,4382.05127,4447.05127,4362.05127,4613.717773,4480.384766,2825,2,45,,,,0,4,0,4,2,0,0,1,4,1,0,4,1,4,4,0,,,,,,,,,,,,,,,,,,,,,,,,,,,,,,,,,,,,,,,,,,,,,,,,,,,,,,,,,,,
1782732802,1782732802,252,0,4311.025879,4303.717773,4416.410156,3731.153809,4302.05127,4651.153809,4415.641113,4474.615234,4147.436035,4380.897461,4457.94873,4366.153809,4643.589844,4488.333496,2807,2,45,,,,0,4,0,4,2,0,0,1,4,1,0,4,1,4,4,0,,,,,,,,,,,,,,,,,,,,,,,,,,,,,,,,,,,,,,,,,,,,,,,,,,,,,,,,,,,
1782732802,1782732802,253,0,4308.717773,4303.974121,4421.794922,3729.230713,4304.871582,4647.179688,4423.846191,4499.230957,4153.974121,4384.615234,4452.563965,4368.846191,4665.512695,4490.641113,192,2,45,,,,0,4,0,4,2,0,0,1,4,1,0,4,1,4,4,0,,,,,,,,,,,,,,,,,,,,,,,,,,,,,,,,,,,,,,,,,,,,,,,,,,,,,,,,,,,
1782732802,1782732802,254,0,4298.846191,4303.589844,4414.487305,3728.205078,4307.307617,4644.871582,4429.102539,4501.153809,4154.871582,4387.563965,4436.153809,4368.333496,4678.077148,4483.461426,2247,2,45,,,,0,4,0,4,2,0,0,1,4,1,0,4,1,4,4,0,,,,,,,,,,,,,,,,,,,,,,,,,,,,,,,,,,,,,,,,,,,,,,,,,,,,,,,,,,,
1782732802,1782732802,255,0,4289.743652,4302.94873,4403.717773,3731.153809,4308.205078,4643.077148,4429.871582,4485.641113,4149.871582,4387.820313,4426.666504,4365.512695,4686.794922,4474.230957,45,2,45,,,,0,4,0,4,2,0,0,1,4,1,0,4,1,4,4,0,,,,,,,,,,,,,,,,,,,,,,,,,,,,,,,,,,,,,,,,,,,,,,,,,,,,,,,,,,,
1782732802,1782732802,0,0,4287.820313,4302.692383,4400,3739.358887,4306.922852,4640.897461,4428.717773,4469.487305,4142.179688,4387.179688,4433.846191,4363.205078,4694.743652,4470.641113,2254,2,45,,,,0,4,0,4,2,0,0,1,4,1,0,4,1,4,4,0,,,,,,,,,,,,,,,,,,,,,,,,,,,,,,,,,,,,,,,,,,,,,,,,0,0,0.094338,-0.082031,0.724487,0.677856,-0.218288,0.996582,-0.073373,1.264896,-51.321865,-10.487686
1782732802,1782732802,1,0,4290.384766,4303.077148,4404.615234,3750.128174,4305,4637.563965,4428.589844,4465.256348,4136.538574,4388.077148,4450.641113,4363.077148,4698.717773,4472.94873,1027,2,45,,,,0,4,0,4,2,0,0,1,4,1,0,4,1,4,4,0,,,,,,,,,,,,,,,,,,,,,,,,,,,,,,,,,,,,,,,,,,,,,,,,,,,,,,,,,,,
1782732802,1782732802,2,0,4289.615234,4303.461426,4410.769043,3758.461426,4304.230957,4633.589844,4429.871582,4474.102539,4136.922852,4390.384766,4461.922852,4364.615234,4694.615234,4474.871582,2516,2,45,,,,0,4,0,4,2,0,0,1,4,1,0,4,1,4,4,0,,,,,,,,,,,,,,,,,,,,,,,,,,,,,,,,,,,,,,,,,,,,,,,,,,,,,,,,,,,
1782732802,1782732802,3,0,4280.256348,4303.589844,4411.794922,3761.410156,4305.769043,4629.487305,4430.512695,4487.307617,4143.846191,4391.153809,4459.358887,4365.512695,4682.94873,4470.256348,0,2,45,,,,0,4,0,4,2,0,0,1,4,1,0,4,1,4,4,0,,,,,,,,,,,,,,,,,,,,,,,,,,,,,,,,,,,,,,,,,,,,,,,,,,,,,,,,,,,
1782732802,1782732802,4,0,4264.743652,4303.846191,4407.179688,3761.025635,4308.589844,4626.025879,4428.077148,4495.769043,4154.871582,4387.307617,4448.846191,4364.615234,4669.487305,4460.128418,0,2,45,,,,0,4,0,4,2,0,0,1,4,1,0,4,1,4,4,0,,,,,,,,,,,,,,,,,,,,,,,,,,,,,,,,,,,,,,,,,,,,,,,,,,,,,,,,,,,
1782732802,1782732802,5,0,4251.025879,4304.230957,4403.205078,3761.923096,4311.025879,4624.358887,4423.461426,4496.153809,4165.769043,4378.077148,4445,4362.307617,4661.922852,4451.666504,0,2,45,,,,0,4,0,4,2,0,0,1,4,1,0,4,1,4,4,0,,,,,,,,,,,,,,,,,,,,,,,,,,,,,,,,,,,,,,,,,,,,,,,,,,,,,,,,,,,
1782732802,1782732802,6,0,4247.820313,4304.615234,4406.410156,3767.94873,4311.922852,4625.128418,4419.871582,4491.538574,4173.974121,4366.666504,4458.333496,4360.512695,4664.358887,4452.05127,412,2,45,,,,0,4,0,4,2,0,0,1,4,1,0,4,1,4,4,0,,,,,,,,,,,,,,,,,,,,,,,,,,,,,,,,,,,,,,,,,,,,,,,,,,,,,,,,,,,
1782732802,1782732802,7,0,4256.538574,4304.358887,4418.205078,3778.333252,4311.794922,4628.205078,4420.128418,4488.077148,4179.743652,4357.436035,4484.615234,4361.666504,4674.487305,4462.692383,1609,2,45,,,,0,4,0,4,2,0,0,1,4,1,0,4,1,4,4,0,,,,,,,,,,,,,,,,,,,,,,,,,,,,,,,,,,,,,,,,,,,,,,,,,,,,,,,,,,,
1782732802,1782732802,8,0,4269.743652,4303.717773,4431.922852,3787.307617,4310.897461,4631.794922,4423.717773,4488.974121,4185.769043,4352.820313,4508.333496,4365.769043,4684.871582,4476.922852,225,2,45,,,,0,4,0,4,2,0,0,1,4,1,0,4,1,4,4,0,,,,,,,,,,,,,,,,,,,,,,,,,,,,,,,,,,,,,,,,,,,,,,,,1,0,0.088472,-0.08728,0.722839,0.679749,-0.254914,0.958979,-0.060676,-3.261594,-51.056347,-10.405584
1782732802,1782732802,9,0,4275.641113,4302.94873,4438.077148,3788.974365,4309.743652,4633.333496,4427.179688,4492.692383,4193.461426,4351.794922,4516.153809,4371.153809,4687.692383,4485.897461,0,2,45,,,,0,4,0,4,2,0,0,1,4,1,0,4,1,4,4,0,,,,,,,,,,,,,,,,,,,,,,,,,,,,,,,,,,,,,,,,,,,,,,,,,,,,,,,,,,,
1782732802,1782732802,10,0,4267.94873,4302.692383,4433.589844,3782.05127,4309.102539,4631.794922,4427.563965,4496.025879,4201.794922,4351.538574,4506.538574,4374.487305,4679.615234,4485.512695,2192,2,45,,,,0,4,0,4,2,0,0,1,4,1,0,4,1,4,4,0,,,,,,,,,,,,,,,,,,,,,,,,,,,,,,,,,,,,,,,,,,,,,,,,,,,,,,,,,,,
1782732802,1782732802,11,0,4252.436035,4302.820313,4425.256348,3773.333252,4309.871582,4627.563965,4424.615234,4496.538574,4208.333496,4350.128418,4487.94873,4374.615234,4664.615234,4479.102539,2822,2,45,,,,0,4,0,4,2,0,0,1,4,1,0,4,1,4,4,0,,,,,,,,,,,,,,,,,,,,,,,,,,,,,,,,,,,,,,,,,,,,,,,,,,,,,,,,,,,
1782732802,1782732802,12,0,4242.05127,4303.077148,4424.615234,3772.94873,4311.666504,4622.05127,4421.153809,4495.128418,4212.05127,4348.077148,4470.384766,4372.692383,4651.153809,4473.974121,2677,2,45,,,,0,4,0,4,2,0,0,1,4,1,0,4,1,4,4,0,,,,,,,,,,,,,,,,,,,,,,,,,,,,,,,,,,,,,,,,,,,,,,,,,,,,,,,,,,,
1782732802,1782732802,13,0,4246.025879,4303.461426,4437.05127,3786.281982,4313.717773,4616.922852,4419.871582,4493.589844,4213.333496,4347.05127,4458.589844,4371.922852,4645.769043,4474.871582,197,2,45,,,,0,4,0,4,2,0,0,1,4,1,0,4,1,4,4,0,,,,,,,,,,,,,,,,,,,,,,,,,,,,,,,,,,,,,,,,,,,,,,,,,,,,,,,,,,,
1782732802,1782732802,14,0,4261.025879,4303.846191,4456.538574,3808.846191,4315.256348,4613.077148,4420.384766,4492.179688,4213.461426,4347.820313,4452.436035,4373.717773,4648.717773,4480.384766,2192,2,45,,,,0,4,0,4,2,0,0,1,4,1,0,4,1,4,4,0,,,,,,,,,,,,,,,,,,,,,,,,,,,,,,,,,,,,,,,,,,,,,,,,,,,,,,,,,,,
1782732802,1782732802,15,0,4275.128418,4303.974121,4470.256348,3829.487061,4316.153809,4610.512695,4420.641113,4489.230957,4211.025879,4349.230957,4450.641113,4377.05127,4654.230957,4484.871582,2822,2,45,,,,0,4,0,4,2,0,0,1,4,1,0,4,1,4,4,0,,,,,,,,,,,,,,,,,,,,,,,,,,,,,,,,,,,,,,,,,,,,,,,,,,,,,,,,,,,
1782732802,1782732802,16,0,4275.512695,4303.717773,4467.692383,3837.564209,4316.794922,4608.333496,4419.358887,4485,4200.512695,4349.743652,4450.641113,4378.974121,4653.846191,4484.230957,2677,2,45,,,,0,4,0,4,2,0,0,1,4,1,0,4,1,4,4,0,,,,,,,,,,,,,,,,,,,,,,,,,,,,,,,,,,,,,,,,,,,,,,,,2,0,0.081062,-0.094788,0.720459,0.68219,-0.245635,0.967281,-0.05384,-7.235435,-50.884045,-10.348359
1782732802,1782732802,17,0,4257.05127,4303.077148,4447.307617,3830,4317.307617,4605.641113,4417.820313,4482.563965,4174.230957,4348.461426,4445.512695,4377.179688,4641.794922,4477.436035,197,2,45,,,,0,4,0,4,2,0,0,1,4,1,0,4,1,4,4,0,,,,,,,,,,,,,,,,,,,,,,,,,,,,,,,,,,,,,,,,,,,,,,,,,,,,,,,,,,,
1782732802,1782732802,18,0,4225.897461,4302.307617,4417.692383,3812.307617,4317.563965,4601.282227,4418.589844,4484.871582,4125.128418,4346.538574,4428.333496,4371.538574,4619.102539,4466.282227,2192,2,45,,,,0,4,0,4,2,0,0,1,4,1,0,4,1,4,4,0,,,,,,,,,,,,,,,,,,,,,,,,,,,,,,,,,,,,,,,,,,,,,,,,,,,,,,,,,,,
1782732802,1782732802,19,0,4196.922852,4302.05127,4392.820313,3796.923096,4317.436035,4594.743652,4422.05127,4491.153809,4056.666748,4346.025879,4403.461426,4365,4596.794922,4454.102539,2822,2,45,,,,0,4,0,4,2,0,0,1,4,1,0,4,1,4,4,0,,,,,,,,,,,,,,,,,,,,,,,,,,,,,,,,,,,,,,,,,,,,,,,,,,,,,,,,,,,
1782732802,1782732802,20,0,4186.538574,4302.05127,4386.153809,3795.384521,4317.307617,4586.922852,4425.256348,4495.641113,3987.820557,4348.077148,4387.94873,4361.282227,4590.641113,4446.282227,2677,2,45,,,,0,4,0,4,2,0,0,1,4,1,0,4,1,4,4,0,,,,,,,,,,,,,,,,,,,,,,,,,,,,,,,,,,,,,,,,,,,,,,,,,,,,,,,,,,,
1782732802,1782732802,21,0,4201.922852,4302.307617,4401.794922,3809.743652,4317.05127,4578.846191,4423.974121,4491.666504,3945.641113,4351.666504,4396.922852,4362.692383,4608.589844,4447.436035,197,2,45,,,,0,4,0,4,2,0,0,1,4,1,0,4,1,4,4,0,,,,,,,,,,,,,,,,,,,,,,,,,,,,,,,,,,,,,,,,,,,,,,,,,,,,,,,,,,,
1782732802,1782732802,22,0,4233.333496,4302.94873,4431.025879,3831.025635,4316.666504,4571.794922,4417.05127,4476.922852,3943.333252,4354.871582,4423.846191,4368.077148,4640,4457.179688,2192,2,45,,,,0,4,0,4,2,0,0,1,4,1,0,4,1,4,4,0,,,,,,,,,,,,,,,,,,,,,,,,,,,,,,,,,,,,,,,,,,,,,,,,,,,,,,,,,,,
1782732802,1782732802,23,0,4259.743652,4303.846191,4456.410156,3846.666748,4316.410156,4566.666504,4407.692383,4457.307617,3963.205078,4356.153809,4442.05127,4373.333496,4660.641113,4466.922852,2822,2,45,,,,0,4,0,4,2,0,0,1,4,1,0,4,1,4,4,0,,,,,,,,,,,,,,,,,,,,,,,,,,,,,,,,,,,,,,,,,,,,,,,,,,,,,,,,,,,
1782732802,1782732802,24,0,4262.692383,4304.615234,4462.563965,3849.487061,4316.153809,4563.589844,4401.666504,4442.94873,3962.307617,4355.384766,4426.538574,4373.974121,4650.384766,4465.641113,2677,2,45,,,,0,4,0,4,2,0,0,1,4,1,0,4,1,4,4,0,,,,,,,,,,,,,,,,,,,,,,,,,,,,,,,,,,,,,,,,,,,,,,,,3,0,0.076662,-0.099304,0.719116,0.683472,-0.249054,0.972165,-0.061165,-10.595224,-50.878971,-10.08019
1782732802,1782732802,25,0,4240,4304.487305,4446.794922,3841.153809,4316.282227,4561.794922,4402.307617,4441.282227,3901.281982,4353.717773,4377.307617,4368.974121,4611.282227,4449.743652,197,2,45,,,,0,4,0,4,2,0,0,1,4,1,0,4,1,4,4,0,,,,,,,,,,,,,,,,,,,,,,,,,,,,,,,,,,,,,,,,,,,,,,,,,,,,,,,,,,,
1782732802,1782732802,26,0,4206.282227,4303.461426,4420.384766,3828.718018,4317.05127,4559.743652,4408.461426,4452.05127,3774.230713,4351.666504,4321.025879,4361.282227,4565,4427.05127,2192,2,45,,,,0,4,0,4,2,0,0,1,4,1,0,4,1,4,4,0,,,,,,,,,,,,,,,,,,,,,,,,,,,,,,,,,,,,,,,,,,,,,,,,,,,,,,,,,,,
1782732802,1782732802,27,0,4180.897461,4302.307617,4400,3819.743652,4318.589844,4556.410156,4415.256348,4466.794922,3616.153809,4348.846191,4290.641113,4355.769043,4536.153809,4411.153809,2822,2,45,,,,0,4,0,4,2,0,0,1,4,1,0,4,1,4,4,0,,,,,,,,,,,,,,,,,,,,,,,,,,,,,,,,,,,,,,,,,,,,,,,,,,,,,,,,,,,
1782732802,1782732802,28,0,4173.846191,4301.538574,4396.153809,3818.461426,4320.512695,4551.922852,4418.205078,4476.410156,3481.025635,4344.487305,4300.769043,4355.256348,4535.384766,4409.871582,2677,2,45,,,,0,4,0,4,2,0,0,1,4,1,0,4,1,4,4,0,,,,,,,,,,,,,,,,,,,,,,,,,,,,,,,,,,,,,,,,,,,,,,,,,,,,,,,,,,,
1782732802,1782732802,29,0,4181.282227,4301.282227,4407.436035,3824.230713,4321.922852,4547.05127,4416.153809,4476.922852,3408.333252,4339.358887,4339.871582,4358.846191,4555.128418,4419.615234,197,2,45,,,,0,4,0,4,2,0,0,1,4,1,0,4,1,4,4,0,,,,,,,,,,,,,,,,,,,,,,,,,,,,,,,,,,,,,,,,,,,,,,,,,,,,,,,,,,,
1782732802,1782732802,30,0,4191.538574,4301.282227,4423.461426,3833.846191,4322.179688,4543.077148,4411.666504,4472.05127,3400.384521,4335.641113,4381.153809,4362.820313,4579.487305,4429.358887,2192,2,45,,,,0,4,0,4,2,0,0,1,4,1,0,4,1,4,4,0,,,,,,,,,,,,,,,,,,,,,,,,,,,,,,,,,,,,,,,,,,,,,,,,,,,,,,,,,,,
1782732802,1782732802,31,0,4194.871582,4301.922852,4434.487305,3843.205078,4321.153809,4540.256348,4407.436035,4467.307617,3427.05127,4335.512695,4403.589844,4364.102539,4595.641113,4430.897461,2822,2,45,,,,0,4,0,4,2,0,0,1,4,1,0,4,1,4,4,0,,,,,,,,,,,,,,,,,,,,,,,,,,,,,,,,,,,,,,,,,,,,,,,,,,,,,,,,,,,
1782732802,1782732802,32,0,4190.641113,4303.461426,4437.05127,3850,4319.743652,4538.589844,4405,4462.692383,3450.128174,4338.333496,4403.846191,4362.436035,4600.512695,4425,0,2,45,,,,0,4,0,4,2,0,0,1,4,1,0,4,1,4,4,0,,,,,,,,,,,,,,,,,,,,,,,,,,,,,,,,,,,,,,,,,,,,,,,,4,0,0.069521,-0.106262,0.717102,0.685303,-0.254426,0.977048,-0.060676,-13.785702,-50.874409,-9.705504
1782732802,1782732802,33,0,4184.487305,4305,4433.717773,3853.718018,4318.717773,4537.692383,4403.974121,4454.358887,3449.230713,4341.282227,4394.487305,4359.615234,4597.692383,4419.487305,0,2,45,,,,0,4,0,4,2,0,0,1,4,1,0,4,1,4,4,0,,,,,,,,,,,,,,,,,,,,,,,,,,,,,,,,,,,,,,,,,,,,,,,,,,,,,,,,,,,
1782732802,1782732802,34,0,4182.307617,4305.384766,4429.743652,3855,4319.102539,4536.666504,4403.205078,4441.666504,3430.641113,4340.897461,4389.743652,4358.077148,4592.563965,4421.538574,0,2,45,,,,0,4,0,4,2,0,0,1,4,1,0,4,1,4,4,0,,,,,,,,,,,,,,,,,,,,,,,,,,,,,,,,,,,,,,,,,,,,,,,,,,,,,,,,,,,
1782732802,1782732802,35,0,4185,4303.846191,4429.358887,3853.205078,4320.384766,4534.487305,4402.692383,4432.820313,3416.410156,4336.666504,4393.846191,4358.846191,4588.205078,4431.153809,0,2,45,,,,0,4,0,4,2,0,0,1,4,1,0,4,1,4,4,0,,,,,,,,,,,,,,,,,,,,,,,,,,,,,,,,,,,,,,,,,,,,,,,,,,,,,,,,,,,
1782732802,1782732802,36,0,4188.205078,4301.153809,4432.563965,3847.564209,4321.794922,4531.282227,4403.333496,4438.589844,3423.076904,4331.025879,4400.512695,4361.794922,4587.05127,4442.179688,0,2,45,,,,0,4,0,4,2,0,0,1,4,1,0,4,1,4,4,0,,,,,,,,,,,,,,,,,,,,,,,,,,,,,,,,,,,,,,,,,,,,,,,,,,,,,,,,,,,
