title:Session_021_29Jun2026,start timestamp:1782733524.420074,stop timestamp:1782733582.106416,headset type:EPOCX,headset serial:E7020186,headset firmware:740,channels:98,sampling rate:eeg_256;pm_0.1;mot_32,samples:14777,version:2.2,,,,,,,,,,,,,,,,,,,,,,,,,,,,,,,,,,,,,,,,,,,,,,,,,,,,,,,,,,,,,,,,,,,,,,,,,,,,,,,,,,,,,,,,,
Timestamp,OriginalTimestamp,EEG.Counter,EEG.Interpolated,EEG.AF3,EEG.F7,EEG.F3,EEG.FC5,EEG.T7,EEG.P7,EEG.O1,EEG.O2,EEG.P8,EEG.T8,EEG.FC6,EEG.F4,EEG.F8,EEG.AF4,EEG.RawCq,EEG.Battery,EEG.BatteryPercent,MarkerIndex,MarkerType,MarkerValueInt,EEG.MarkerHardware,CQ.AF3,CQ.F7,CQ.F3,CQ.FC5,CQ.T7,CQ.P7,CQ.O1,CQ.O2,CQ.P8,CQ.T8,CQ.FC6,CQ.F4,CQ.F8,CQ.AF4,CQ.Overall,EQ.SampleRateQuality,EQ.OVERALL,EQ.AF3,EQ.F7,EQ.F3,EQ.FC5,EQ.T7,EQ.P7,EQ.O1,EQ.O2,EQ.P8,EQ.T8,EQ.FC6,EQ.F4,EQ.F8,EQ.AF4,PM.Attention.IsActive,PM.Attention.Scaled,PM.Attention.Raw,PM.Attention.Min,PM.Attention.Max,PM.Engagement.IsActive,PM.Engagement.Scaled,PM.Engagement.Raw,PM.Engagement.Min,PM.Engagement.Max,PM.Excitement.IsActive,PM.Excitement.Scaled,PM.Excitement.Raw,PM.Excitement.Min,PM.Excitement.Max,PM.LongTermExcitement,PM.Stress.IsActive,PM.Stress.Scaled,PM.Stress.Raw,PM.Stress.Min,PM.Stress.Max,PM.Relaxation.IsActive,PM.Relaxation.Scaled,PM.Relaxation.Raw,PM.Relaxation.Min,PM.Relaxation.Max,PM.Interest.IsActive,PM.Interest.Scaled,PM.Interest.Raw,PM.Interest.Min,PM.Interest.Max,MOT.CounterMems,MOT.InterpolatedMems,MOT.Q0,MOT.Q1,MOT.Q2,MOT.Q3,MOT.AccX,MOT.AccY,MOT.AccZ,MOT.MagX,MOT.MagY,MOT.MagZ
1782733524,1782733524,71,0,4109.230957,4310.256348,4339.487305,4317.179688,4301.025879,4156.025879,4373.077148,4125,4302.307617,4366.025879,4287.692383,4404.358887,4438.974121,4698.974121,0,2,43,,,,0,4,0,0,0,0,0,4,4,0,0,0,2,1,4,0,,,,,,,,,,,,,,,,,,,,,,,,,,,,,,,,,,,,,,,,,,,,,,,,,,,,,,,,,,,
1782733524,1782733524,72,0,4103.077148,4308.974121,4336.282227,4319.102539,4302.179688,4153.077148,4369.102539,4126.282227,4303.974121,4366.666504,4283.974121,4401.666504,4438.846191,4698.205078,0,2,43,,,,0,4,0,0,0,0,0,4,4,0,0,0,2,1,4,0,,,,,,,,,,,,,,,,,,,,,,,,,,,,,,,,,,,,,,,,,,,,,,,,9,0,0.163564,0.378601,-0.591614,-0.692749,-0.32084,0.929191,0.021853,-54.90572,-12.274692,4.196716
1782733524,1782733524,73,0,4105.769043,4308.333496,4334.487305,4322.05127,4304.230957,4149.871582,4368.589844,4130.897461,4305.512695,4368.333496,4282.05127,4401.794922,4442.05127,4708.589844,0,2,43,,,,0,4,0,0,0,0,0,4,4,0,0,0,2,1,4,0,,,,,,,,,,,,,,,,,,,,,,,,,,,,,,,,,,,,,,,,,,,,,,,,,,,,,,,,,,,
1782733524,1782733524,74,0,4115.512695,4308.846191,4334.230957,4325.384766,4306.410156,4146.538574,4369.743652,4136.666504,4306.282227,4370.384766,4283.717773,4404.230957,4446.538574,4725.512695,0,2,43,,,,0,4,0,0,0,0,0,4,4,0,0,0,2,1,4,0,,,,,,,,,,,,,,,,,,,,,,,,,,,,,,,,,,,,,,,,,,,,,,,,,,,,,,,,,,,
1782733524,1782733524,75,0,4126.282227,4310.512695,4335,4328.461426,4308.077148,4143.846191,4370.256348,4141.282227,4305.769043,4372.307617,4288.846191,4407.05127,4449.102539,4739.487305,0,2,43,,,,0,4,0,0,0,0,0,4,4,0,0,0,2,1,4,0,,,,,,,,,,,,,,,,,,,,,,,,,,,,,,,,,,,,,,,,,,,,,,,,,,,,,,,,,,,
1782733524,1782733524,76,0,4132.05127,4312.307617,4335.769043,4330.256348,4308.717773,4142.692383,4367.94873,4142.820313,4303.974121,4373.333496,4295.256348,4408.589844,4448.333496,4742.94873,0,2,43,,,,0,4,0,0,0,0,0,4,4,0,0,0,2,1,4,0,,,,,,,,,,,,,,,,,,,,,,,,,,,,,,,,,,,,,,,,,,,,,,,,,,,,,,,,,,,
1782733524,1782733524,77,0,4130.384766,4312.692383,4335.384766,4330.641113,4308.205078,4143.589844,4361.794922,4141.153809,4302.436035,4373.333496,4300.769043,4408.333496,4445.641113,4734.487305,0,2,43,,,,0,4,0,0,0,0,0,4,4,0,0,0,2,1,4,0,,,,,,,,,,,,,,,,,,,,,,,,,,,,,,,,,,,,,,,,,,,,,,,,,,,,,,,,,,,
1782733524,1782733524,78,0,4123.461426,4310.256348,4333.974121,4329.743652,4306.922852,4145.384766,4352.436035,4137.563965,4302.563965,4372.563965,4304.230957,4407.692383,4443.333496,4720.769043,0,2,43,,,,0,4,0,0,0,0,0,4,4,0,0,0,2,1,4,0,,,,,,,,,,,,,,,,,,,,,,,,,,,,,,,,,,,,,,,,,,,,,,,,,,,,,,,,,,,
1782733524,1782733524,79,0,4116.025879,4305.256348,4332.05127,4328.205078,4305.128418,4146.025879,4341.922852,4134.358887,4304.358887,4371.794922,4306.025879,4408.077148,4443.333496,4711.282227,0,2,43,,,,0,4,0,0,0,0,0,4,4,0,0,0,2,1,4,0,,,,,,,,,,,,,,,,,,,,,,,,,,,,,,,,,,,,,,,,,,,,,,,,,,,,,,,,,,,
1782733524,1782733524,80,0,4112.692383,4299.615234,4330.641113,4326.666504,4303.461426,4144.615234,4333.077148,4133.333496,4306.794922,4371.666504,4307.179688,4410,4445.641113,4712.179688,0,2,43,,,,0,4,0,0,0,0,0,4,4,0,0,0,2,1,4,0,,,,,,,,,,,,,,,,,,,,,,,,,,,,,,,,,,,,,,,,,,,,,,,,10,0,0.155756,0.375061,-0.592896,-0.695374,-0.35014,0.911122,0.013063,-54.615147,-12.463889,4.110378
1782733524,1782733524,81,0,4115.128418,4295.897461,4329.743652,4325.641113,4302.563965,4142.94873,4327.436035,4135,4308.717773,4372.179688,4308.461426,4412.692383,4448.205078,4722.307617,0,2,43,,,,0,4,0,0,0,0,0,4,4,0,0,0,2,1,4,0,,,,,,,,,,,,,,,,,,,,,,,,,,,,,,,,,,,,,,,,,,,,,,,,,,,,,,,,,,,
1782733524,1782733524,82,0,4121.282227,4295.384766,4328.461426,4325.769043,4302.436035,4143.077148,4324.230957,4137.820313,4308.846191,4372.94873,4310.128418,4415.769043,4448.717773,4735.128418,0,2,43,,,,0,4,0,0,0,0,0,4,4,0,0,0,2,1,4,0,,,,,,,,,,,,,,,,,,,,,,,,,,,,,,,,,,,,,,,,,,,,,,,,,,,,,,,,,,,
1782733524,1782733524,83,0,4126.922852,4297.179688,4326.538574,4326.666504,4302.563965,4145,4321.025879,4139.487305,4306.922852,4373.333496,4311.922852,4419.358887,4446.153809,4743.846191,0,2,43,,,,0,4,0,0,0,0,0,4,4,0,0,0,2,1,4,0,,,,,,,,,,,,,,,,,,,,,,,,,,,,,,,,,,,,,,,,,,,,,,,,,,,,,,,,,,,
1782733524,1782733524,84,0,4128.333496,4298.846191,4324.615234,4326.794922,4302.05127,4146.538574,4315.512695,4138.846191,4303.077148,4372.436035,4313.077148,4424.230957,4441.282227,4745.512695,0,2,43,,,,0,4,0,0,0,0,0,4,4,0,0,0,2,1,4,0,,,,,,,,,,,,,,,,,,,,,,,,,,,,,,,,,,,,,,,,,,,,,,,,,,,,,,,,,,,
1782733524,1782733524,85,0,4124.230957,4298.974121,4323.974121,4325.128418,4301.025879,4145.769043,4307.563965,4135.769043,4298.846191,4370.128418,4312.692383,4429.615234,4436.153809,4741.025879,0,2,43,,,,0,4,0,0,0,0,0,4,4,0,0,0,2,1,4,0,,,,,,,,,,,,,,,,,,,,,,,,,,,,,,,,,,,,,,,,,,,,,,,,,,,,,,,,,,,
1782733524,1782733524,86,0,4116.153809,4297.94873,4325.256348,4321.666504,4300.256348,4143.333496,4297.94873,4130.384766,4296.282227,4367.436035,4310.897461,4433.589844,4432.436035,4733.077148,0,2,43,,,,0,4,0,0,0,0,0,4,4,0,0,0,2,1,4,0,,,,,,,,,,,,,,,,,,,,,,,,,,,,,,,,,,,,,,,,,,,,,,,,,,,,,,,,,,,
1782733524,1782733524,87,0,4107.05127,4297.307617,4327.307617,4317.94873,4300,4141.794922,4288.077148,4123.333496,4296.153809,4365.769043,4308.077148,4434.358887,4430.769043,4724.487305,0,2,43,,,,0,4,0,0,0,0,0,4,4,0,0,0,2,1,4,0,,,,,,,,,,,,,,,,,,,,,,,,,,,,,,,,,,,,,,,,,,,,,,,,,,,,,,,,,,,
1782733524,1782733524,88,0,4099.102539,4297.563965,4328.461426,4316.282227,4299.871582,4141.922852,4278.461426,4115.769043,4297.436035,4366.153809,4305.512695,4431.794922,4430.384766,4716.410156,0,2,43,,,,0,4,0,0,0,0,0,4,4,0,0,0,2,1,4,0,,,,,,,,,,,,,,,,,,,,,,,,,,,,,,,,,,,,,,,,,,,,,,,,11,0,0.143001,0.370117,-0.594116,-0.699707,-0.358442,0.942376,-0.010866,-54.336964,-12.5675,4.09934
1782733524,1782733524,89,0,4093.718018,4298.461426,4327.307617,4317.820313,4299.102539,4141.666504,4269.102539,4109.871582,4298.077148,4367.94873,4304.487305,4428.077148,4430.256348,4710.256348,0,2,43,,,,0,4,0,0,0,0,0,4,4,0,0,0,2,1,4,0,,,,,,,,,,,,,,,,,,,,,,,,,,,,,,,,,,,,,,,,,,,,,,,,,,,,,,,,,,,
1782733524,1782733524,90,0,4091.666748,4299.230957,4324.871582,4322.179688,4297.436035,4136.666504,4260,4107.307617,4296.794922,4370,4305.256348,4426.025879,4429.871582,4707.179688,0,2,43,,,,0,4,0,0,0,0,0,4,4,0,0,0,2,1,4,0,,,,,,,,,,,,,,,,,,,,,,,,,,,,,,,,,,,,,,,,,,,,,,,,,,,,,,,,,,,
1782733524,1782733525,91,0,4092.564209,4299.230957,4323.077148,4326.922852,4295.512695,4123.974121,4252.307617,4108.717773,4294.615234,4370.769043,4307.436035,4428.333496,4429.102539,4708.461426,0,2,43,,,,0,4,0,0,0,0,0,4,4,0,0,0,2,1,4,0,,,,,,,,,,,,,,,,,,,,,,,,,,,,,,,,,,,,,,,,,,,,,,,,,,,,,,,,,,,
1782733525,1782733525,92,0,4095.769287,4298.974121,4323.717773,4329.743652,4294.615234,4105.128418,4247.820313,4113.205078,4293.333496,4370,4309.487305,4435.256348,4428.717773,4714.230957,0,2,43,,,,0,4,0,0,0,0,0,4,4,0,0,0,2,1,4,0,,,,,,,,,,,,,,,,,,,,,,,,,,,,,,,,,,,,,,,,,,,,,,,,,,,,,,,,,,,
1782733525,1782733525,93,0,4099.871582,4298.846191,4326.922852,4329.230957,4295.641113,4085.512939,4246.282227,4118.461426,4293.846191,4368.205078,4309.615234,4445.641113,4429.487305,4723.461426,0,2,43,,,,0,4,0,0,0,0,0,4,4,0,0,0,2,1,4,0,,,,,,,,,,,,,,,,,,,,,,,,,,,,,,,,,,,,,,,,,,,,,,,,,,,,,,,,,,,
1782733525,1782733525,94,0,4104.743652,4298.974121,4330.897461,4326.153809,4297.692383,4071.281982,4246.025879,4122.436035,4295.128418,4366.922852,4306.922852,4458.333496,4431.153809,4734.102539,0,2,43,,,,0,4,0,0,0,0,0,4,4,0,0,0,2,1,4,0,,,,,,,,,,,,,,,,,,,,,,,,,,,,,,,,,,,,,,,,,,,,,,,,,,,,,,,,,,,
1782733525,1782733525,95,0,4110.897461,4299.102539,4333.333496,4323.333496,4299.615234,4066.025635,4244.615234,4124.230957,4296.153809,4366.794922,4303.589844,4472.692383,4433.461426,4744.358887,0,2,43,,,,0,4,0,0,0,0,0,4,4,0,0,0,2,1,4,0,,,,,,,,,,,,,,,,,,,,,,,,,,,,,,,,,,,,,,,,,,,,,,,,,,,,,,,,,,,
1782733525,1782733525,96,0,4120.512695,4299.102539,4333.461426,4322.692383,4300.512695,4068.205078,4241.282227,4123.846191,4297.05127,4367.307617,4303.461426,4488.974121,4435.512695,4753.974121,0,2,43,,,,0,4,0,0,0,0,0,4,4,0,0,0,2,1,4,0,,,,,,,,,,,,,,,,,,,,,,,,,,,,,,,,,,,,,,,,,,,,,,,,12,0,0.13559,0.36731,-0.594788,-0.702087,-0.354047,0.959468,-0.021121,-53.986603,-12.894083,4.339406
1782733525,1782733525,97,0,4133.205078,4298.974121,4331.538574,4324.743652,4299.871582,4073.461426,4236.794922,4122.179688,4298.077148,4367.563965,4309.102539,4506.153809,4437.692383,4762.563965,0,2,43,,,,0,4,0,0,0,0,0,4,4,0,0,0,2,1,4,0,,,,,,,,,,,,,,,,,,,,,,,,,,,,,,,,,,,,,,,,,,,,,,,,,,,,,,,,,,,
1782733525,1782733525,98,0,4144.487305,4298.974121,4328.717773,4327.307617,4298.205078,4077.564209,4231.282227,4120.256348,4299.230957,4367.179688,4319.487305,4520.769043,4439.743652,4768.333496,0,2,43,,,,0,4,0,0,0,0,0,4,4,0,0,0,2,1,4,0,,,,,,,,,,,,,,,,,,,,,,,,,,,,,,,,,,,,,,,,,,,,,,,,,,,,,,,,,,,
1782733525,1782733525,99,0,4147.820313,4298.974121,4326.282227,4327.563965,4296.410156,4078.718018,4222.820313,4118.077148,4299.743652,4366.538574,4330.512695,4528.589844,4440.512695,4768.333496,0,2,43,,,,0,4,0,0,0,0,0,4,4,0,0,0,2,1,4,0,,,,,,,,,,,,,,,,,,,,,,,,,,,,,,,,,,,,,,,,,,,,,,,,,,,,,,,,,,,
1782733525,1782733525,100,0,4141.025879,4298.974121,4325.128418,4325.128418,4295.641113,4077.692383,4209.230957,4115.384766,4299.102539,4366.025879,4338.717773,4528.205078,4438.846191,4761.282227,0,2,43,,,,0,4,0,0,0,0,0,4,4,0,0,0,2,1,4,0,,,,,,,,,,,,,,,,,,,,,,,,,,,,,,,,,,,,,,,,,,,,,,,,,,,,,,,,,,,
1782733525,1782733525,101,0,4128.846191,4298.974121,4325.641113,4321.922852,4295.769043,4075.769287,4190,4111.666504,4297.436035,4365.512695,4343.461426,4522.436035,4434.487305,4749.358887,0,2,43,,,,0,4,0,0,0,0,0,4,4,0,0,0,2,1,4,0,,,,,,,,,,,,,,,,,,,,,,,,,,,,,,,,,,,,,,,,,,,,,,,,,,,,,,,,,,,
1782733525,1782733525,102,0,4120,4298.974121,4327.563965,4320.769043,4296.153809,4072.05127,4167.436035,4107.563965,4295.128418,4364.615234,4347.307617,4517.436035,4429.230957,4737.179688,0,2,43,,,,0,4,0,0,0,0,0,4,4,0,0,0,2,1,4,0,,,,,,,,,,,,,,,,,,,,,,,,,,,,,,,,,,,,,,,,,,,,,,,,,,,,,,,,,,,
1782733525,1782733525,103,0,4121.025879,4298.974121,4330,4322.563965,4295.256348,4064.615479,4146.922852,4104.615234,4293.461426,4363.205078,4353.717773,4518.077148,4425.128418,4729.102539,0,2,43,,,,0,4,0,0,0,0,0,4,4,0,0,0,2,1,4,0,,,,,,,,,,,,,,,,,,,,,,,,,,,,,,,,,,,,,,,,,,,,,,,,,,,,,,,,,,,
1782733525,1782733525,104,0,4132.436035,4298.974121,4331.538574,4325.897461,4292.563965,4052.692383,4134.487305,4104.871582,4293.205078,4362.179688,4363.974121,4525.384766,4423.717773,4727.05127,0,2,43,,,,0,4,0,0,0,0,0,4,4,0,0,0,2,1,4,0,,,,,,,,,,,,,,,,,,,,,,,,,,,,,,,,,,,,,,,,,,,,,,,,13,0,0.128394,0.364319,-0.595337,-0.704529,-0.344769,0.934074,0.024295,-53.687943,-13.038008,4.388799
1782733525,1782733525,105,0,4149.743652,4298.974121,4331.153809,4328.589844,4288.846191,4038.589844,4132.563965,4109.102539,4294.358887,4362.307617,4375.641113,4535.897461,4424.743652,4730,0,2,43,,,,0,4,0,0,0,0,0,4,4,0,0,0,2,1,4,0,,,,,,,,,,,,,,,,,,,,,,,,,,,,,,,,,,,,,,,,,,,,,,,,,,,,,,,,,,,
1782733525,1782733525,106,0,4166.153809,4298.974121,4329.230957,4330.128418,4285.769043,4026.794922,4137.307617,4115.769043,4295.128418,4363.974121,4384.102539,4545,4426.922852,4734.871582,0,2,43,,,,0,4,0,0,0,0,0,4,4,0,0,0,2,1,4,0,,,,,,,,,,,,,,,,,,,,,,,,,,,,,,,,,,,,,,,,,,,,,,,,,,,,,,,,,,,
1782733525,1782733525,107,0,4177.179688,4298.974121,4327.563965,4330.897461,4284.871582,4020.256348,4141.666504,4122.307617,4293.974121,4366.153809,4385.769043,4550.128418,4428.461426,4738.717773,0,2,43,,,,0,4,0,0,0,0,0,4,4,0,0,0,2,1,4,0,,,,,,,,,,,,,,,,,,,,,,,,,,,,,,,,,,,,,,,,,,,,,,,,,,,,,,,,,,,
1782733525,1782733525,108,0,4182.05127,4298.974121,4327.563965,4332.179688,4286.538574,4019.358887,4140,4126.794922,4291.282227,4367.563965,4381.282227,4552.179688,4428.205078,4739.871582,0,2,43,,,,0,4,0,0,0,0,0,4,4,0,0,0,2,1,4,0,,,,,,,,,,,,,,,,,,,,,,,,,,,,,,,,,,,,,,,,,,,,,,,,,,,,,,,,,,,
1782733525,1782733525,109,0,4182.820313,4298.974121,4329.230957,4335.256348,4290.384766,4021.281982,4132.820313,4129.358887,4289.102539,4367.05127,4374.871582,4554.871582,4427.307617,4739.487305,0,2,43,,,,0,4,0,0,0,0,0,4,4,0,0,0,2,1,4,0,,,,,,,,,,,,,,,,,,,,,,,,,,,,,,,,,,,,,,,,,,,,,,,,,,,,,,,,,,,
1782733525,1782733525,110,0,4182.05127,4298.974121,4330.384766,4340.384766,4294.743652,4022.692383,4124.230957,4130.897461,4289.102539,4364.871582,4370.769043,4561.153809,4427.307617,4739.358887,0,2,43,,,,0,4,0,0,0,0,0,4,4,0,0,0,2,1,4,0,,,,,,,,,,,,,,,,,,,,,,,,,,,,,,,,,,,,,,,,,,,,,,,,,,,,,,,,,,,
1782733525,1782733525,111,0,4180.769043,4298.974121,4328.846191,4345.769043,4297.436035,4022.05127,4118.589844,4132.436035,4290.641113,4362.94873,4370.769043,4571.538574,4429.230957,4739.871582,0,2,43,,,,0,4,0,0,0,0,0,4,4,0,0,0,2,1,4,0,,,,,,,,,,,,,,,,,,,,,,,,,,,,,,,,,,,,,,,,,,,,,,,,,,,,,,,,,,,
1782733525,1782733525,112,0,4177.94873,4298.974121,4324.102539,4348.846191,4296.794922,4019.743652,4116.794922,4134.230957,4291.538574,4362.692383,4372.94873,4582.563965,4431.282227,4739.487305,0,2,43,,,,0,4,0,0,0,0,0,4,4,0,0,0,2,1,4,0,,,,,,,,,,,,,,,,,,,,,,,,,,,,,,,,,,,,,,,,,,,,,,,,14,0,0.117799,0.359436,-0.595642,-0.708618,-0.357954,0.909169,0.027713,-53.20248,-13.150874,4.533252
1782733525,1782733525,113,0,4172.820313,4298.974121,4318.077148,4348.077148,4292.820313,4017.820557,4116.410156,4136.025879,4290.512695,4364.358887,4373.974121,4589.743652,4431.282227,4736.538574,0,2,43,,,,0,4,0,0,0,0,0,4,4,0,0,0,2,1,4,0,,,,,,,,,,,,,,,,,,,,,,,,,,,,,,,,,,,,,,,,,,,,,,,,,,,,,,,,,,,
1782733525,1782733525,114,0,4166.922852,4298.974121,4313.717773,4344.358887,4287.563965,4017.692383,4114.487305,4137.563965,4288.461426,4366.410156,4372.692383,4591.025879,4428.205078,4730.769043,0,2,43,,,,0,4,0,0,0,0,0,4,4,0,0,0,2,1,4,0,1,0,1,0,0,0,0,0,0,1,0,0,0,2,1,1,,,,,,,,,,,,,,,,,,,,,,,,,,,,,,,,,,,,,,,,,,,
1782733525,1782733525,115,0,4163.333496,4298.974121,4312.563965,4340.897461,4283.461426,4019.230713,4110.256348,4139.230957,4287.436035,4367.179688,4370.897461,4588.589844,4423.461426,4724.615234,0,2,43,,,,0,4,0,0,0,0,0,4,4,0,0,0,2,1,4,0,,,,,,,,,,,,,,,,,,,,,,,,,,,,,,,,,,,,,,,,,,,,,,,,,,,,,,,,,,,
1782733525,1782733525,116,0,4164.230957,4298.974121,4313.974121,4340.641113,4281.922852,4021.281982,4105.641113,4141.538574,4288.205078,4366.410156,4370.641113,4586.922852,4419.743652,4721.282227,0,2,43,,,,0,4,0,0,0,0,0,4,4,0,0,0,2,1,4,0,,,,,,,,,,,,,,,,,,,,,,,,,,,,,,,,,,,,,,,,,,,,,,,,,,,,,,,,,,,
1782733525,1782733525,117,0,4168.974121,4298.974121,4315.897461,4343.846191,4282.692383,4022.820557,4103.333496,4144.358887,4290,4365.128418,4372.436035,4588.974121,4419.230957,4722.436035,0,2,43,,,,0,4,0,0,0,0,0,4,4,0,0,0,2,1,4,0,,,,,,,,,,,,,,,,,,,,,,,,,,,,,,,,,,,,,,,,,,,,,,,,,,,,,,,,,,,
1782733525,1782733525,118,0,4175.384766,4298.974121,4316.538574,4347.94873,4284.615234,4022.94873,4104.615234,4147.692383,4291.666504,4364.871582,4374.230957,4594.358887,4422.563965,4727.436035,0,2,43,,,,0,4,0,0,0,0,0,4,4,0,0,0,2,1,4,0,,,,,,,,,,,,,,,,,,,,,,,,,,,,,,,,,,,,,,,,,,,,,,,,,,,,,,,,,,,
1782733525,1782733525,119,0,4181.794922,4298.974121,4316.153809,4350.128418,4286.025879,4021.666748,4107.94873,4150.512695,4293.205078,4366.025879,4375,4600.512695,4428.717773,4733.333496,0,2,43,,,,0,4,0,0,0,0,0,4,4,0,0,0,2,1,4,0,,,,,,,,,,,,,,,,,,,,,,,,,,,,,,,,,,,,,,,,,,,,,,,,,,,,,,,,,,,
1782733525,1782733525,120,0,4188.077148,4298.974121,4316.025879,4349.743652,4286.025879,4019.615479,4110.897461,4151.794922,4295.384766,4367.563965,4375.256348,4605.641113,4435.512695,4738.077148,0,2,43,,,,0,4,0,0,0,0,0,4,4,0,0,0,2,1,4,0,,,,,,,,,,,,,,,,,,,,,,,,,,,,,,,,,,,,,,,,,,,,,,,,15,0,0.110276,0.356506,-0.595642,-0.711304,-0.350629,0.925772,0.026737,-52.665565,-13.402453,4.679927
1782733525,1782733525,121,0,4193.974121,4298.974121,4316.538574,4348.205078,4284.743652,4017.564209,4111.410156,4151.538574,4298.205078,4368.333496,4377.05127,4609.743652,4439.102539,4740.128418,0,2,43,,,,0,4,0,0,0,0,0,4,4,0,0,0,2,1,4,0,,,,,,,,,,,,,,,,,,,,,,,,,,,,,,,,,,,,,,,,,,,,,,,,,,,,,,,,,,,
1782733525,1782733525,122,0,4197.94873,4298.974121,4317.307617,4347.05127,4283.333496,4015.512939,4109.871582,4150.897461,4301.153809,4367.94873,4381.538574,4614.358887,4436.922852,4739.743652,0,2,43,,,,0,4,0,0,0,0,0,4,4,0,0,0,2,1,4,0,,,,,,,,,,,,,,,,,,,,,,,,,,,,,,,,,,,,,,,,,,,,,,,,,,,,,,,,,,,
1782733525,1782733525,123,0,4199.230957,4298.974121,4317.820313,4347.179688,4283.205078,4013.205078,4108.205078,4151.538574,4303.461426,4367.307617,4388.333496,4620.897461,4430.512695,4738.333496,0,2,43,,,,0,4,0,0,0,0,0,4,4,0,0,0,2,1,4,0,,,,,,,,,,,,,,,,,,,,,,,,,,,,,,,,,,,,,,,,,,,,,,,,,,,,,,,,,,,
1782733525,1782733525,124,0,4198.589844,4298.974121,4318.077148,4348.589844,4283.974121,4010.384521,4107.563965,4153.077148,4305.384766,4367.436035,4395.384766,4627.820313,4425.641113,4738.846191,0,2,43,,,,0,4,0,0,0,0,0,4,4,0,0,0,2,1,4,0,,,,,,,,,,,,,,,,,,,,,,,,,,,,,,,,,,,,,,,,,,,,,,,,,,,,,,,,,,,
1782733525,1782733525,125,0,4198.205078,4298.974121,4318.717773,4350.512695,4284.102539,4007.692383,4107.307617,4153.846191,4307.05127,4368.589844,4401.282227,4633.077148,4427.94873,4742.94873,0,2,43,,,,0,4,0,0,0,0,0,4,4,0,0,0,2,1,4,0,,,,,,,,,,,,,,,,,,,,,,,,,,,,,,,,,,,,,,,,,,,,,,,,,,,,,,,,,,,
1782733525,1782733525,126,0,4198.333496,4298.974121,4319.743652,4351.666504,4283.077148,4006.281982,4106.410156,4153.461426,4309.615234,4370.256348,4406.410156,4635.384766,4437.692383,4749.615234,0,2,43,,,,0,4,0,0,0,0,0,4,4,0,0,0,2,1,4,0,,,,,,,,,,,,,,,,,,,,,,,,,,,,,,,,,,,,,,,,,,,,,,,,,,,,,,,,,,,
1782733525,1782733525,127,0,4197.94873,4298.974121,4321.025879,4350.897461,4281.282227,4006.281982,4105,4153.461426,4313.461426,4371.410156,4412.179688,4635.256348,4449.487305,4755.128418,0,2,43,,,,0,4,0,0,0,0,0,4,4,0,0,0,2,1,4,0,,,,,,,,,,,,,,,,,,,,,,,,,,,,,,,,,,,,,,,,,,,,,,,,,,,,,,,,,,,
1782733525,1782733525,128,0,4196.666504,4298.974121,4322.563965,4348.846191,4280,4006.923096,4104.487305,4155.769043,4317.94873,4371.410156,4419.358887,4634.615234,4456.666504,4756.153809,0,2,43,,,,0,4,0,0,0,0,0,4,4,0,0,0,2,1,4,0,,,,,,,,,,,,,,,,,,,,,,,,,,,,,,,,,,,,,,,,,,,,,,,,16,0,0.102255,0.35376,-0.596375,-0.713257,-0.402393,0.940422,0.007203,-52.199009,-13.478874,4.661934
1782733525,1782733525,129,0,4196.153809,4298.974121,4323.846191,4347.179688,4279.487305,4005.897461,4105.641113,4160.128418,4321.922852,4371.025879,4426.922852,4634.871582,4456.794922,4752.05127,0,2,43,,,,0,4,0,0,0,0,0,4,4,0,0,0,2,1,4,0,,,,,,,,,,,,,,,,,,,,,,,,,,,,,,,,,,,,,,,,,,,,,,,,,,,,,,,,,,,
1782733525,1782733525,130,0,4199.487305,4298.974121,4324.487305,4346.922852,4279.102539,4002.179443,4106.538574,4164.615234,4323.974121,4371.410156,4432.307617,4635.897461,4453.974121,4745.512695,2431,2,43,,,,0,4,0,0,0,0,0,4,4,0,0,0,2,1,4,0,,,,,,,,,,,,,,,,,,,,,,,,,,,,,,,,,,,,,,,,,,,,,,,,,,,,,,,,,,,
1782733525,1782733525,131,0,4207.94873,4298.974121,4323.974121,4347.692383,4278.589844,3996.025635,4105,4166.922852,4323.974121,4373.077148,4433.717773,4637.05127,4454.230957,4741.153809,0,2,43,,,,0,4,0,0,0,0,0,4,4,0,0,0,2,1,4,0,,,,,,,,,,,,,,,,,,,,,,,,,,,,,,,,,,,,,,,,,,,,,,,,,,,,,,,,,,,
1782733525,1782733525,132,0,4219.871582,4298.974121,4322.179688,4347.692383,4278.333496,3989.358887,4100.641113,4166.666504,4323.205078,4375.641113,4431.538574,4637.563965,4461.410156,4743.717773,0,2,43,,,,0,4,0,0,0,0,0,4,4,0,0,0,2,1,4,0,,,,,,,,,,,,,,,,,,,,,,,,,,,,,,,,,,,,,,,,,,,,,,,,,,,,,,,,,,,
1782733525,1782733525,133,0,4231.666504,4298.974121,4319.871582,4345.897461,4279.102539,3983.333252,4095.641113,4165.641113,4323.974121,4378.461426,4427.820313,4637.692383,4474.487305,4753.846191,0,2,43,,,,0,4,0,0,0,0,0,4,4,0,0,0,2,1,4,0,,,,,,,,,,,,,,,,,,,,,,,,,,,,,,,,,,,,,,,,,,,,,,,,,,,,,,,,,,,
1782733525,1782733525,134,0,4239.358887,4298.974121,4318.077148,4342.307617,4281.025879,3978.589844,4091.794922,4165.512695,4327.179688,4381.538574,4424.487305,4637.820313,4488.205078,4768.205078,2257,2,43,,,,0,4,0,0,0,0,0,4,4,0,0,0,2,1,4,0,,,,,,,,,,,,,,,,,,,,,,,,,,,,,,,,,,,,,,,,,,,,,,,,,,,,,,,,,,,
1782733525,1782733525,135,0,4240.897461,4298.974121,4317.563965,4338.077148,4283.077148,3974.743652,4089.871826,4166.922852,4331.794922,4385.256348,4422.436035,4637.94873,4497.436035,4781.153809,2316,2,43,,,,0,4,0,0,0,0,0,4,4,0,0,0,2,1,4,0,,,,,,,,,,,,,,,,,,,,,,,,,,,,,,,,,,,,,,,,,,,,,,,,,,,,,,,,,,,
1782733525,1782733525,136,0,4237.820313,4298.974121,4319.102539,4334.743652,4284.230957,3971.410156,4089.102539,4168.205078,4336.282227,4390,4421.282227,4637.307617,4500.641113,4788.974121,0,2,43,,,,0,4,0,0,0,0,0,4,4,0,0,0,2,2,4,0,,,,,,,,,,,,,,,,,,,,,,,,,,,,,,,,,,,,,,,,,,,,,,,,17,0,0.091526,0.350098,-0.598083,-0.715088,-0.410206,0.89989,0.033085,-51.595776,-13.614321,4.995741
1782733525,1782733525,137,0,4234.230957,4298.846191,4322.179688,4333.589844,4284.743652,3968.589844,4087.820557,4167.436035,4339.102539,4394.487305,4420.128418,4635.384766,4500.512695,4791.153809,0,2,43,,,,0,4,0,0,0,0,0,4,4,0,0,0,2,2,4,0,,,,,,,,,,,,,,,,,,,,,,,,,,,,,,,,,,,,,,,,,,,,,,,,,,,,,,,,,,,
1782733525,1782733525,138,0,4233.589844,4298.589844,4325.384766,4335.256348,4285.128418,3967.05127,4085.256348,4163.974121,4340.128418,4397.179688,4419.102539,4632.307617,4501.410156,4789.487305,594,2,43,,,,0,4,0,0,0,0,0,4,4,0,0,0,2,2,4,0,,,,,,,,,,,,,,,,,,,,,,,,,,,,,,,,,,,,,,,,,,,,,,,,,,,,,,,,,,,
1782733525,1782733525,139,0,4235.897461,4298.589844,4326.666504,4339.743652,4286.666504,3966.794922,4080.641113,4159.487305,4340.256348,4397.820313,4418.717773,4628.974121,4505,4785.512695,2944,2,43,,,,0,4,0,0,0,0,0,4,4,0,0,0,2,2,4,0,,,,,,,,,,,,,,,,,,,,,,,,,,,,,,,,,,,,,,,,,,,,,,,,,,,,,,,,,,,
1782733525,1782733525,140,0,4237.563965,4298.846191,4324.615234,4344.743652,4289.871582,3966.666748,4074.230713,4155.769043,4339.871582,4397.692383,4418.974121,4625.641113,4508.974121,4779.615234,0,2,43,,,,0,4,0,0,0,0,0,4,4,0,0,0,2,2,4,0,,,,,,,,,,,,,,,,,,,,,,,,,,,,,,,,,,,,,,,,,,,,,,,,,,,,,,,,,,,
1782733525,1782733525,141,0,4234.743652,4299.487305,4319.615234,4347.436035,4294.102539,3965.256348,4067.05127,4153.846191,4339.230957,4398.717773,4419.230957,4622.307617,4510,4771.922852,836,2,43,,,,0,4,0,0,0,0,0,4,4,0,0,0,2,2,4,0,,,,,,,,,,,,,,,,,,,,,,,,,,,,,,,,,,,,,,,,,,,,,,,,,,,,,,,,,,,
1782733525,1782733525,142,0,4227.179688,4299.615234,4314.358887,4345.769043,4297.179688,3962.307617,4060.769287,4153.205078,4338.077148,4401.410156,4418.461426,4619.230957,4507.820313,4764.615234,594,2,43,,,,0,4,0,0,0,0,0,4,4,0,0,0,2,2,4,0,,,,,,,,,,,,,,,,,,,,,,,,,,,,,,,,,,,,,,,,,,,,,,,,,,,,,,,,,,,
1782733525,1782733525,143,0,4219.358887,4298.846191,4311.025879,4341.153809,4297.05127,3958.718018,4056.281982,4152.820313,4336.282227,4403.846191,4415.769043,4617.179688,4504.743652,4761.666504,2944,2,43,,,,0,4,0,0,0,0,0,4,4,0,0,0,2,2,4,0,,,,,,,,,,,,,,,,,,,,,,,,,,,,,,,,,,,,,,,,,,,,,,,,,,,,,,,,,,,
1782733525,1782733525,144,0,4215.897461,4297.563965,4310.384766,4336.922852,4293.333496,3956.538574,4053.589844,4152.179688,4333.717773,4404.102539,4411.666504,4617.307617,4503.589844,4765,0,2,43,,,,0,4,0,0,0,0,0,4,4,0,0,0,2,2,4,0,,,,,,,,,,,,,,,,,,,,,,,,,,,,,,,,,,,,,,,,,,,,,,,,18,0,0.084895,0.348328,-0.598999,-0.716003,-0.42681,0.900867,0.050177,-51.052864,-13.819555,5.262834
1782733525,1782733525,145,0,4217.692383,4297.563965,4311.025879,4335.641113,4288.077148,3956.923096,4051.666748,4151.666504,4330.641113,4400.769043,4407.307617,4619.487305,4504.230957,4771.666504,836,2,43,,,,0,4,0,0,0,0,0,4,4,0,0,0,2,2,4,0,,,,,,,,,,,,,,,,,,,,,,,,,,,,,,,,,,,,,,,,,,,,,,,,,,,,,,,,,,,
1782733525,1782733525,146,0,4221.282227,4299.358887,4310.897461,4336.538574,4283.974121,3959.487061,4049.230713,4151.538574,4327.820313,4394.871582,4403.589844,4622.692383,4505.256348,4775.641113,594,2,43,,,,0,4,0,0,0,0,0,4,4,0,0,0,2,2,4,0,,,,,,,,,,,,,,,,,,,,,,,,,,,,,,,,,,,,,,,,,,,,,,,,,,,,,,,,,,,
1782733525,1782733525,147,0,4222.692383,4302.307617,4310,4337.436035,4282.692383,3961.281982,4045,4151.666504,4326.282227,4389.102539,4400.641113,4625.384766,4505.512695,4772.820313,2944,2,43,,,,0,4,0,0,0,0,0,4,4,0,0,0,2,2,4,0,,,,,,,,,,,,,,,,,,,,,,,,,,,,,,,,,,,,,,,,,,,,,,,,,,,,,,,,,,,
1782733525,1782733525,148,0,4220.641113,4304.487305,4308.974121,4336.538574,4283.717773,3960.256348,4039.230713,4151.025879,4325.769043,4386.410156,4398.333496,4627.307617,4505.256348,4764.102539,0,2,43,,,,0,4,0,0,0,0,0,4,4,0,0,0,2,2,4,0,,,,,,,,,,,,,,,,,,,,,,,,,,,,,,,,,,,,,,,,,,,,,,,,,,,,,,,,,,,
1782733525,1782733525,149,0,4216.794922,4304.487305,4309.102539,4334.615234,4285.384766,3955.641113,4033.076904,4149.102539,4325.897461,4387.692383,4396.666504,4629.743652,4505,4754.230957,836,2,43,,,,0,4,0,0,0,0,0,4,4,0,0,0,2,2,4,0,,,,,,,,,,,,,,,,,,,,,,,,,,,,,,,,,,,,,,,,,,,,,,,,,,,,,,,,,,,
1782733525,1782733525,150,0,4213.461426,4302.692383,4310.769043,4333.077148,4286.538574,3950,4028.205078,4146.538574,4326.025879,4392.05127,4395.897461,4633.717773,4505.128418,4747.563965,594,2,43,,,,0,4,0,0,0,0,0,4,4,0,0,0,2,2,4,0,,,,,,,,,,,,,,,,,,,,,,,,,,,,,,,,,,,,,,,,,,,,,,,,,,,,,,,,,,,
1782733525,1782733525,151,0,4211.282227,4300.641113,4313.077148,4333.077148,4286.538574,3946.538574,4025.384521,4144.487305,4325.769043,4396.922852,4395.897461,4638.589844,4505.256348,4743.846191,2944,2,43,,,,0,4,0,0,0,0,0,4,4,0,0,0,2,2,4,0,,,,,,,,,,,,,,,,,,,,,,,,,,,,,,,,,,,,,,,,,,,,,,,,,,,,,,,,,,,
1782733525,1782733525,152,0,4209.230957,4300.256348,4314.615234,4334.102539,4285.769043,3946.923096,4023.333252,4142.820313,4325.641113,4399.871582,4395.512695,4641.922852,4504.871582,4739.615234,0,2,43,,,,0,4,0,0,0,0,0,4,4,0,0,0,2,2,4,0,,,,,,,,,,,,,,,,,,,,,,,,,,,,,,,,,,,,,,,,,,,,,,,,19,0,0.076008,0.346069,-0.600769,-0.716614,-0.442925,0.940911,0.060921,-50.597576,-14.204267,5.453217
1782733525,1782733525,153,0,4206.282227,4301.666504,4314.615234,4335,4284.230957,3949.871826,4019.230713,4140,4326.153809,4400,4393.717773,4640.897461,4503.589844,4731.538574,836,2,43,,,,0,4,0,0,0,0,0,4,4,0,0,0,2,2,4,0,,,,,,,,,,,,,,,,,,,,,,,,,,,,,,,,,,,,,,,,,,,,,,,,,,,,,,,,,,,
1782733525,1782733525,154,0,4202.436035,4303.589844,4313.589844,4334.743652,4282.94873,3952.564209,4011.538574,4135.128418,4327.05127,4397.820313,4390.256348,4635.512695,4501.410156,4720.384766,594,2,43,,,,0,4,0,0,0,0,0,4,4,0,0,0,2,2,4,0,,,,,,,,,,,,,,,,,,,,,,,,,,,,,,,,,,,,,,,,,,,,,,,,,,,,,,,,,,,
1782733525,1782733525,155,0,4200,4304.871582,4312.692383,4333.461426,4282.94873,3953.205078,4001.923096,4128.717773,4327.692383,4395.256348,4386.538574,4628.461426,4500.128418,4710.897461,2944,2,43,,,,0,4,0,0,0,0,0,4,4,0,0,0,2,2,4,0,,,,,,,,,,,,,,,,,,,,,,,,,,,,,,,,,,,,,,,,,,,,,,,,,,,,,,,,,,,
1782733525,1782733525,156,0,4201.666504,4304.615234,4313.077148,4331.282227,4284.487305,3952.692383,3994.102539,4123.077148,4327.436035,4393.974121,4384.615234,4623.461426,4500.897461,4707.692383,0,2,43,,,,0,4,0,0,0,0,0,4,4,0,0,0,2,2,4,0,,,,,,,,,,,,,,,,,,,,,,,,,,,,,,,,,,,,,,,,,,,,,,,,,,,,,,,,,,,
1782733525,1782733525,157,0,4208.077148,4303.461426,4314.230957,4329.230957,4287.05127,3953.718018,3990.769287,4120.128418,4326.410156,4394.102539,4385.256348,4622.307617,4503.205078,4711.794922,836,2,43,,,,0,4,0,0,0,0,0,4,4,0,0,0,2,2,4,0,,,,,,,,,,,,,,,,,,,,,,,,,,,,,,,,,,,,,,,,,,,,,,,,,,,,,,,,,,,
1782733525,1782733525,158,0,4217.563965,4302.563965,4314.487305,4328.077148,4289.615234,3960.256348,3991.538574,4120,4325.384766,4394.487305,4387.692383,4624.358887,4504.615234,4719.615234,594,2,43,,,,0,4,0,0,0,0,0,4,4,0,0,0,2,2,4,0,,,,,,,,,,,,,,,,,,,,,,,,,,,,,,,,,,,,,,,,,,,,,,,,,,,,,,,,,,,
1782733525,1782733525,159,0,4227.436035,4302.563965,4312.307617,4327.436035,4291.538574,3973.205078,3993.718018,4121.025879,4325.256348,4393.846191,4390,4627.179688,4503.205078,4726.922852,2944,2,43,,,,0,4,0,0,0,0,0,4,4,0,0,0,2,2,4,0,,,,,,,,,,,,,,,,,,,,,,,,,,,,,,,,,,,,,,,,,,,,,,,,,,,,,,,,,,,
1782733525,1782733525,160,0,4235.897461,4303.333496,4307.820313,4326.153809,4293.461426,3988.589844,3994.358887,4120.897461,4326.282227,4392.436035,4390.897461,4628.077148,4499.615234,4730.641113,0,2,43,,,,0,4,0,0,0,0,0,4,4,0,0,0,2,2,4,0,,,,,,,,,,,,,,,,,,,,,,,,,,,,,,,,,,,,,,,,,,,,,,,,20,0,0.072725,0.344666,-0.602417,-0.716248,-0.430717,0.928214,0.013063,-50.071152,-14.43384,5.791229
1782733525,1782733525,161,0,4242.692383,4303.974121,4302.307617,4322.94873,4295.769043,3998.718018,3992.05127,4117.94873,4327.436035,4391.666504,4390,4625.897461,4496.410156,4729.743652,836,2,43,,,,0,4,0,0,0,0,0,4,4,0,0,0,2,2,4,0,,,,,,,,,,,,,,,,,,,,,,,,,,,,,,,,,,,,,,,,,,,,,,,,,,,,,,,,,,,
1782733525,1782733525,162,0,4247.94873,4303.846191,4297.563965,4317.820313,4298.205078,3998.333252,3986.794922,4112.94873,4327.820313,4392.179688,4387.692383,4620.897461,4495.384766,4725,594,2,43,,,,0,4,0,0,0,0,0,4,4,0,0,0,2,2,4,0,,,,,,,,,,,,,,,,,,,,,,,,,,,,,,,,,,,,,,,,,,,,,,,,,,,,,,,,,,,
1782733525,1782733525,163,0,4251.922852,4303.205078,4294.743652,4311.794922,4299.743652,3991.794922,3979.230713,4108.333496,4326.410156,4393.589844,4385.128418,4615,4496.538574,4717.94873,2944,2,43,,,,0,4,0,0,0,0,0,4,4,0,0,0,2,2,4,0,,,,,,,,,,,,,,,,,,,,,,,,,,,,,,,,,,,,,,,,,,,,,,,,,,,,,,,,,,,
1782733525,1782733525,164,0,4254.743652,4302.94873,4293.846191,4305.641113,4299.743652,3990.769287,3970.769287,4105.769043,4323.846191,4394.615234,4383.717773,4610,4498.461426,4710.769043,0,2,43,,,,0,4,0,0,0,0,0,4,4,0,0,0,2,2,4,0,,,,,,,,,,,,,,,,,,,,,,,,,,,,,,,,,,,,,,,,,,,,,,,,,,,,,,,,,,,
1782733525,1782733525,165,0,4257.692383,4303.333496,4293.846191,4300,4298.333496,4002.307617,3963.461426,4105.128418,4321.153809,4394.871582,4383.846191,4607.820313,4499.743652,4706.922852,836,2,43,,,,0,4,0,0,0,0,0,4,4,0,0,0,2,2,4,0,,,,,,,,,,,,,,,,,,,,,,,,,,,,,,,,,,,,,,,,,,,,,,,,,,,,,,,,,,,
1782733525,1782733525,166,0,4263.077148,4303.974121,4293.717773,4295.769043,4296.538574,4016.794922,3958.333252,4105.897461,4319.615234,4393.846191,4385.641113,4609.358887,4500.256348,4708.974121,594,2,43,,,,0,4,0,0,0,0,0,4,4,0,0,0,2,2,4,0,,,,,,,,,,,,,,,,,,,,,,,,,,,,,,,,,,,,,,,,,,,,,,,,,,,,,,,,,,,
1782733525,1782733525,167,0,4272.05127,4303.717773,4292.436035,4293.974121,4295.769043,4011.794922,3956.025635,4107.820313,4319.358887,4392.179688,4388.333496,4613.461426,4499.743652,4716.538574,2944,2,43,,,,0,4,0,0,0,0,0,4,4,0,0,0,2,2,4,0,,,,,,,,,,,,,,,,,,,,,,,,,,,,,,,,,,,,,,,,,,,,,,,,,,,,,,,,,,,
1782733525,1782733525,168,0,4283.333496,4302.563965,4289.871582,4294.487305,4296.282227,3968.589844,3955.897461,4110.512695,4319.871582,4390.769043,4390.769043,4617.05127,4498.461426,4725.256348,0,2,43,,,,0,4,0,0,0,0,0,4,4,0,0,0,2,2,4,0,,,,,,,,,,,,,,,,,,,,,,,,,,,,,,,,,,,,,,,,,,,,,,,,21,0,0.069642,0.343323,-0.604126,-0.715759,-0.435112,0.904774,0.04627,-49.580704,-14.740456,5.995439
1782733525,1782733525,169,0,4292.436035,4301.410156,4287.563965,4295.897461,4297.307617,3889.615479,3957.435791,4112.820313,4320.256348,4390.897461,4392.307617,4617.436035,4496.666504,4728.717773,836,2,43,,,,0,4,0,0,0,0,0,4,4,0,0,0,2,2,4,0,,,,,,,,,,,,,,,,,,,,,,,,,,,,,,,,,,,,,,,,,,,,,,,,,,,,,,,,,,,
1782733525,1782733525,170,0,4295.384766,4301.538574,4286.666504,4296.282227,4297.05127,3799.487061,3959.615479,4113.717773,4320.256348,4392.307617,4391.922852,4614.102539,4495.128418,4722.94873,594,2,43,,,,0,4,0,0,0,0,0,4,4,0,0,0,2,2,4,0,,,,,,,,,,,,,,,,,,,,,,,,,,,,,,,,,,,,,,,,,,,,,,,,,,,,,,,,,,,
1782733525,1782733525,171,0,4291.410156,4303.077148,4286.922852,4295.128418,4295.384766,3730.512939,3960.897461,4113.077148,4319.871582,4393.974121,4389.743652,4608.846191,4494.358887,4708.589844,2944,2,43,,,,0,4,0,0,0,0,0,4,4,0,0,0,2,2,4,0,,,,,,,,,,,,,,,,,,,,,,,,,,,,,,,,,,,,,,,,,,,,,,,,,,,,,,,,,,,
1782733525,1782733525,172,0,4283.589844,4304.871582,4287.179688,4293.077148,4293.717773,3701.538574,3960.641113,4111.922852,4319.615234,4394.615234,4386.410156,4604.615234,4494.871582,4691.666504,0,2,43,,,,0,4,0,0,0,0,0,4,4,0,0,0,2,2,4,0,,,,,,,,,,,,,,,,,,,,,,,,,,,,,,,,,,,,,,,,,,,,,,,,,,,,,,,,,,,
1782733525,1782733525,173,0,4277.179688,4305.128418,4286.153809,4291.538574,4294.358887,3708.205078,3959.358887,4111.153809,4319.615234,4393.974121,4383.205078,4603.589844,4496.794922,4678.846191,836,2,43,,,,0,4,0,0,0,0,0,4,4,0,0,0,2,2,4,0,,,,,,,,,,,,,,,,,,,,,,,,,,,,,,,,,,,,,,,,,,,,,,,,,,,,,,,,,,,
1782733525,1782733525,174,0,4275.512695,4303.589844,4284.743652,4290.897461,4297.94873,3730,3958.333252,4112.05127,4320.256348,4392.820313,4381.538574,4605.641113,4499.102539,4673.846191,594,2,43,,,,0,4,0,0,0,0,0,4,4,0,0,0,2,2,4,0,,,,,,,,,,,,,,,,,,,,,,,,,,,,,,,,,,,,,,,,,,,,,,,,,,,,,,,,,,,
1782733525,1782733525,175,0,4277.94873,4301.410156,4284.487305,4291.025879,4303.077148,3746.153809,3958.718018,4115.256348,4321.410156,4391.666504,4382.05127,4608.974121,4500.256348,4676.153809,2944,2,43,,,,0,4,0,0,0,0,0,4,4,0,0,0,2,2,4,0,,,,,,,,,,,,,,,,,,,,,,,,,,,,,,,,,,,,,,,,,,,,,,,,,,,,,,,,,,,
1782733525,1782733525,176,0,4281.025879,4300,4286.153809,4291.538574,4306.794922,3748.461426,3959.743652,4120.256348,4322.820313,4390.512695,4384.487305,4610.897461,4498.589844,4682.563965,0,2,43,,,,0,4,0,0,0,0,0,4,4,0,0,0,2,2,4,0,,,,,,,,,,,,,,,,,,,,,,,,,,,,,,,,,,,,,,,,,,,,,,,,22,0,0.065903,0.341431,-0.607056,-0.714539,-0.43267,0.922354,0.006226,-49.055969,-14.933077,5.929228
1782733525,1782733525,177,0,4281.538574,4300.128418,4288.846191,4292.05127,4307.05127,3743.205078,3959.871826,4124.615234,4323.974121,4388.589844,4387.563965,4609.615234,4494.743652,4688.717773,836,2,43,,,,0,4,0,0,0,0,0,4,4,0,0,0,2,2,4,0,,,,,,,,,,,,,,,,,,,,,,,,,,,,,,,,,,,,,,,,,,,,,,,,,,,,,,,,,,,
1782733525,1782733525,178,0,4278.589844,4301.538574,4291.153809,4292.307617,4304.871582,3741.666748,3957.179443,4125.512695,4324.230957,4386.153809,4390.512695,4604.871582,4490.769043,4691.025879,594,2,43,,,,0,4,0,0,0,0,0,4,4,0,0,0,2,2,4,0,,,,,,,,,,,,,,,,,,,,,,,,,,,,,,,,,,,,,,,,,,,,,,,,,,,,,,,,,,,
1782733525,1782733525,179,0,4272.94873,4303.205078,4292.05127,4292.179688,4302.436035,3748.846191,3951.538574,4121.922852,4323.461426,4384.743652,4392.820313,4598.589844,4489.102539,4687.05127,2944,2,43,,,,0,4,0,0,0,0,0,4,4,0,0,0,2,2,4,0,,,,,,,,,,,,,,,,,,,,,,,,,,,,,,,,,,,,,,,,,,,,,,,,,,,,,,,,,,,
1782733525,1782733525,180,0,4266.666504,4304.230957,4291.538574,4291.153809,4301.410156,3761.025635,3944.358887,4115.256348,4322.307617,4385.641113,4394.487305,4592.94873,4490.512695,4676.410156,0,2,43,,,,0,4,0,0,0,0,0,4,4,0,0,0,2,2,4,0,,,,,,,,,,,,,,,,,,,,,,,,,,,,,,,,,,,,,,,,,,,,,,,,,,,,,,,,,,,
1782733525,1782733525,181,0,4260.769043,4303.974121,4289.871582,4288.717773,4301.153809,3770.769287,3937.564209,4108.846191,4320.897461,4388.846191,4395.128418,4589.615234,4492.563965,4661.794922,836,2,43,,,,0,4,0,0,0,0,0,4,4,0,0,0,2,2,4,0,,,,,,,,,,,,,,,,,,,,,,,,,,,,,,,,,,,,,,,,,,,,,,,,,,,,,,,,,,,
1782733525,1782733525,182,0,4256.794922,4302.94873,4287.436035,4284.487305,4300.128418,3774.487061,3932.435791,4105.256348,4319.743652,4392.179688,4394.871582,4588.846191,4492.692383,4647.563965,594,2,43,,,,0,4,0,0,0,0,0,4,4,0,0,0,2,2,4,0,,,,,,,,,,,,,,,,,,,,,,,,,,,,,,,,,,,,,,,,,,,,,,,,,,,,,,,,,,,
1782733525,1782733525,183,0,4255.769043,4302.179688,4285.256348,4278.846191,4297.820313,3775.384521,3929.358887,4104.743652,4318.589844,4394.102539,4393.974121,4589.358887,4490.641113,4638.461426,2944,2,43,,,,0,4,0,0,0,0,0,4,4,0,0,0,2,2,4,0,,,,,,,,,,,,,,,,,,,,,,,,,,,,,,,,,,,,,,,,,,,,,,,,,,,,,,,,,,,
1782733525,1782733525,184,0,4258.333496,4302.307617,4284.615234,4272.436035,4295.256348,3777.435791,3928.205078,4105.641113,4317.820313,4394.743652,4393.589844,4589.743652,4487.820313,4636.153809,0,2,43,,,,0,4,0,0,0,0,0,4,4,0,0,0,2,2,4,0,,,,,,,,,,,,,,,,,,,,,,,,,,,,,,,,,,,,,,,,,,,,,,,,23,0,0.066162,0.340637,-0.609192,-0.713074,-0.43267,0.894518,0.004761,-48.683704,-15.089769,6.136306
1782733525,1782733525,185,0,4264.102539,4303.205078,4286.410156,4266.538574,4294.358887,3781.281982,3927.94873,4106.410156,4317.820313,4395,4393.974121,4589.615234,4485.897461,4638.717773,836,2,43,,,,0,4,0,0,0,0,0,4,4,0,0,0,2,2,4,0,,,,,,,,,,,,,,,,,,,,,,,,,,,,,,,,,,,,,,,,,,,,,,,,,,,,,,,,,,,
1782733525,1782733525,186,0,4270.897461,4303.846191,4290.256348,4262.692383,4295.897461,3784.615479,3928.333252,4106.153809,4318.461426,4395.128418,4395.128418,4589.615234,4483.974121,4641.666504,594,2,43,,,,0,4,0,0,0,0,0,4,4,0,0,0,2,2,4,0,,,,,,,,,,,,,,,,,,,,,,,,,,,,,,,,,,,,,,,,,,,,,,,,,,,,,,,,,,,
1782733525,1782733525,187,0,4276.025879,4303.333496,4294.102539,4261.666504,4299.230957,3785.897461,3928.718018,4105,4319.358887,4395.128418,4395.769043,4590.384766,4480.384766,4640.256348,2944,2,43,,,,0,4,0,0,0,0,0,4,4,0,0,0,2,2,4,0,,,,,,,,,,,,,,,,,,,,,,,,,,,,,,,,,,,,,,,,,,,,,,,,,,,,,,,,,,,
1782733525,1782733525,188,0,4277.05127,4301.922852,4295.897461,4262.563965,4302.179688,3786.410156,3928.333252,4103.589844,4320,4395.256348,4395,4591.666504,4474.358887,4633.077148,0,2,43,,,,0,4,0,0,0,0,0,4,4,0,0,0,2,2,4,0,,,,,,,,,,,,,,,,,,,,,,,,,,,,,,,,,,,,,,,,,,,,,,,,,,,,,,,,,,,
1782733525,1782733525,189,0,4273.717773,4300.512695,4295,4263.846191,4302.94873,3788.205078,3926.538574,4102.307617,4319.615234,4396.025879,4392.820313,4593.333496,4467.692383,4622.820313,836,2,43,,,,0,4,0,0,0,0,0,4,4,0,0,0,2,2,4,0,,,,,,,,,,,,,,,,,,,,,,,,,,,,,,,,,,,,,,,,,,,,,,,,,,,,,,,,,,,
1782733525,1782733525,190,0,4267.436035,4300.384766,4291.922852,4264.102539,4301.153809,3791.153809,3923.846191,4101.794922,4318.205078,4398.333496,4390.384766,4594.615234,4463.077148,4613.205078,594,2,43,,,,0,4,0,0,0,0,0,4,4,0,0,0,2,2,4,0,,,,,,,,,,,,,,,,,,,,,,,,,,,,,,,,,,,,,,,,,,,,,,,,,,,,,,,,,,,
1782733525,1782733525,191,0,4260.512695,4301.538574,4288.846191,4262.692383,4298.333496,3793.333252,3921.281982,4102.179688,4316.410156,4402.436035,4388.974121,4594.871582,4461.538574,4605.897461,2944,2,43,,,,0,4,0,0,0,0,0,4,4,0,0,0,2,2,4,0,,,,,,,,,,,,,,,,,,,,,,,,,,,,,,,,,,,,,,,,,,,,,,,,,,,,,,,,,,,
1782733525,1782733525,192,0,4254.743652,4303.205078,4287.94873,4259.871582,4296.538574,3793.974365,3920.384521,4102.94873,4315.128418,4407.692383,4389.102539,4593.333496,4461.538574,4599.743652,0,2,43,,,,0,4,0,0,0,0,0,4,4,0,0,0,2,2,4,0,,,,,,,,,,,,,,,,,,,,,,,,,,,,,,,,,,,,,,,,,,,,,,,,24,0,0.066623,0.339966,-0.611084,-0.711731,-0.409718,0.908192,0.017947,-48.282001,-15.330792,6.172675
1782733525,1782733525,193,0,4252.179688,4304.358887,4290.384766,4257.436035,4296.794922,3794.230713,3921.281982,4104.358887,4314.743652,4412.179688,4390.128418,4589.871582,4461.025879,4593.461426,836,2,43,,,,0,4,0,0,0,0,0,4,4,0,0,0,2,2,4,0,,,,,,,,,,,,,,,,,,,,,,,,,,,,,,,,,,,,,,,,,,,,,,,,,,,,,,,,,,,
1782733525,1782733525,194,0,4254.615234,4304.487305,4295.128418,4256.794922,4298.589844,3795.384521,3922.94873,4107.307617,4315,4413.974121,4390.769043,4585.897461,4458.717773,4588.589844,594,2,43,,,,0,4,0,0,0,0,0,4,4,0,0,0,2,2,4,0,,,,,,,,,,,,,,,,,,,,,,,,,,,,,,,,,,,,,,,,,,,,,,,,,,,,,,,,,,,
1782733525,1782733525,195,0,4262.179688,4303.846191,4300.641113,4258.717773,4300.128418,3797.179443,3923.205078,4111.666504,4315.128418,4412.94873,4390.512695,4583.077148,4455.769043,4589.102539,2944,2,43,,,,0,4,0,0,0,0,0,4,4,0,0,0,2,2,4,0,,,,,,,,,,,,,,,,,,,,,,,,,,,,,,,,,,,,,,,,,,,,,,,,,,,,,,,,,,,
1782733525,1782733525,196,0,4272.436035,4303.205078,4304.487305,4261.794922,4299.871582,3798.205078,3920.769287,4116.282227,4314.743652,4410.256348,4388.846191,4582.820313,4454.358887,4596.794922,0,2,43,,,,0,4,0,0,0,0,0,4,4,0,0,0,2,2,4,0,,,,,,,,,,,,,,,,,,,,,,,,,,,,,,,,,,,,,,,,,,,,,,,,,,,,,,,,,,,
1782733525,1782733525,197,0,4280.641113,4303.589844,4305.641113,4264.102539,4298.077148,3797.435791,3916.153809,4119.487305,4314.487305,4408.461426,4386.153809,4584.615234,4455.897461,4608.461426,836,2,43,,,,0,4,0,0,0,0,0,4,4,0,0,0,2,2,4,0,,,,,,,,,,,,,,,,,,,,,,,,,,,,,,,,,,,,,,,,,,,,,,,,,,,,,,,,,,,
1782733525,1782733525,198,0,4282.563965,4305,4304.102539,4263.717773,4296.666504,3796.538574,3911.538574,4121.282227,4315.256348,4408.846191,4382.563965,4586.153809,4459.358887,4616.153809,594,2,43,,,,0,4,0,0,0,0,0,4,4,0,0,0,2,2,4,0,,,,,,,,,,,,,,,,,,,,,,,,,,,,,,,,,,,,,,,,,,,,,,,,,,,,,,,,,,,
1782733525,1782733525,199,0,4277.05127,4306.153809,4301.025879,4261.538574,4297.05127,3796.923096,3909.230713,4122.94873,4317.05127,4410.897461,4378.589844,4585.256348,4462.179688,4613.333496,2944,2,43,,,,0,4,0,0,0,0,0,4,4,0,0,0,2,2,4,0,,,,,,,,,,,,,,,,,,,,,,,,,,,,,,,,,,,,,,,,,,,,,,,,,,,,,,,,,,,
1782733525,1782733525,200,0,4267.563965,4305.769043,4297.05127,4259.871582,4299.615234,3799.230713,3910.641113,4126.153809,4318.589844,4412.692383,4374.743652,4581.410156,4462.563965,4599.871582,0,2,43,,,,0,4,0,0,0,0,0,4,4,0,0,0,2,2,4,0,,,,,,,,,,,,,,,,,,,,,,,,,,,,,,,,,,,,,,,,,,,,,,,,25,0,0.06768,0.338257,-0.613403,-0.710449,-0.40044,0.920889,0.010133,-47.853802,-15.66438,6.355408
1782733525,1782733525,201,0,4259.358887,4303.717773,4292.94873,4260.641113,4302.94873,3802.692383,3913.461426,4131.153809,4319.102539,4412.179688,4371.922852,4576.666504,4460.512695,4582.05127,836,2,43,,,,0,4,0,0,0,0,0,4,4,0,0,0,2,2,4,0,,,,,,,,,,,,,,,,,,,,,,,,,,,,,,,,,,,,,,,,,,,,,,,,,,,,,,,,,,,
1782733525,1782733525,202,0,4256.410156,4301.282227,4289.743652,4263.974121,4305.384766,3806.281982,3914.230713,4136.794922,4318.717773,4408.846191,4371.025879,4573.846191,4458.205078,4568.333496,594,2,43,,,,0,4,0,0,0,0,0,4,4,0,0,0,2,2,4,0,,,,,,,,,,,,,,,,,,,,,,,,,,,,,,,,,,,,,,,,,,,,,,,,,,,,,,,,,,,
1782733525,1782733525,203,0,4258.077148,4300.128418,4288.589844,4266.666504,4305.897461,3809.102539,3910.512939,4140.897461,4318.461426,4404.358887,4372.307617,4574.615234,4457.436035,4563.461426,2944,2,43,,,,0,4,0,0,0,0,0,4,4,0,0,0,2,2,4,0,,,,,,,,,,,,,,,,,,,,,,,,,,,,,,,,,,,,,,,,,,,,,,,,,,,,,,,,,,,
1782733525,1782733525,204,0,4261.025879,4301.282227,4290.769043,4264.743652,4305,3811.410156,3903.589844,4142.179688,4319.615234,4400.897461,4375.384766,4578.717773,4458.846191,4566.153809,0,2,43,,,,0,4,0,0,0,0,0,4,4,0,0,0,2,2,4,0,,,,,,,,,,,,,,,,,,,,,,,,,,,,,,,,,,,,,,,,,,,,,,,,,,,,,,,,,,,
1782733525,1782733525,205,0,4262.307617,4303.717773,4295.256348,4256.794922,4304.487305,3813.846191,3897.435791,4140.641113,4321.538574,4399.743652,4378.974121,4583.205078,4461.282227,4571.282227,836,2,43,,,,0,4,0,0,0,0,0,4,4,0,0,0,2,2,4,0,,,,,,,,,,,,,,,,,,,,,,,,,,,,,,,,,,,,,,,,,,,,,,,,,,,,,,,,,,,
1782733525,1782733525,206,0,4261.922852,4305.641113,4299.743652,4244.743652,4306.025879,3816.923096,3895.641113,4138.205078,4322.94873,4400.128418,4381.922852,4585.769043,4462.820313,4573.846191,594,2,43,,,,0,4,0,0,0,0,0,4,4,0,0,0,2,2,4,0,,,,,,,,,,,,,,,,,,,,,,,,,,,,,,,,,,,,,,,,,,,,,,,,,,,,,,,,,,,
1782733525,1782733525,207,0,4261.922852,4306.025879,4301.794922,4232.692383,4310,3820.256348,3899.230713,4137.307617,4322.820313,4400.512695,4383.589844,4585.384766,4463.461426,4572.436035,2944,2,43,,,,0,4,0,0,0,0,0,4,4,0,0,0,2,2,4,0,,,,,,,,,,,,,,,,,,,,,,,,,,,,,,,,,,,,,,,,,,,,,,,,,,,,,,,,,,,
1782733525,1782733525,208,0,4265,4304.871582,4300.384766,4224.743652,4315,3823.718018,3906.281982,4139.615234,4321.410156,4400.256348,4383.589844,4584.230957,4463.974121,4568.974121,0,2,43,,,,0,4,0,0,0,0,0,4,4,0,0,0,2,2,4,0,,,,,,,,,,,,,,,,,,,,,,,,,,,,,,,,,,,,,,,,,,,,,,,,26,0,0.069214,0.336975,-0.614502,-0.709961,-0.392138,0.901843,0.018923,-47.518421,-15.831275,6.519867
1782733525,1782733525,209,0,4271.282227,4303.333496,4296.666504,4223.077148,4318.846191,3826.538574,3912.564209,4144.615234,4319.871582,4399.615234,4382.563965,4585,4466.025879,4566.666504,836,2,43,,,,0,4,0,0,0,0,0,4,4,0,0,0,2,2,4,0,,,,,,,,,,,,,,,,,,,,,,,,,,,,,,,,,,,,,,,,,,,,,,,,,,,,,,,,,,,
1782733525,1782733525,210,0,4278.461426,4302.563965,4292.94873,4226.153809,4320.641113,3828.333252,3914.743652,4150.128418,4318.717773,4399.230957,4381.282227,4589.102539,4469.615234,4567.05127,594,2,43,,,,0,4,0,0,0,0,0,4,4,0,0,0,2,2,4,0,,,,,,,,,,,,,,,,,,,,,,,,,,,,,,,,,,,,,,,,,,,,,,,,,,,,,,,,,,,
1782733525,1782733525,211,0,4282.820313,4303.077148,4291.282227,4230.256348,4321.025879,3828.974365,3911.923096,4153.589844,4317.179688,4399.487305,4380.128418,4594.615234,4473.589844,4569.743652,2944,2,43,,,,0,4,0,0,0,0,0,4,4,0,0,0,2,2,4,0,,,,,,,,,,,,,,,,,,,,,,,,,,,,,,,,,,,,,,,,,,,,,,,,,,,,,,,,,,,
1782733525,1782733525,212,0,4282.307617,4304.615234,4291.794922,4231.922852,4320.641113,3828.589844,3905.128174,4154.102539,4314.487305,4399.871582,4378.717773,4598.461426,4476.410156,4572.563965,0,2,43,,,,0,4,0,0,0,0,0,4,4,0,0,0,2,2,4,0,,,,,,,,,,,,,,,,,,,,,,,,,,,,,,,,,,,,,,,,,,,,,,,,,,,,,,,,,,,
1782733525,1782733525,213,0,4277.94873,4305.897461,4293.333496,4231.025879,4319.615234,3828.589844,3897.564209,4152.436035,4310.641113,4400.256348,4376.794922,4598.589844,4476.794922,4573.461426,836,2,43,,,,0,4,0,0,0,0,0,4,4,0,0,0,2,2,4,0,,,,,,,,,,,,,,,,,,,,,,,,,,,,,,,,,,,,,,,,,,,,,,,,,,,,,,,,,,,
1782733525,1782733525,214,0,4273.205078,4305.384766,4294.487305,4229.358887,4318.333496,3829.230713,3892.179443,4150.256348,4306.794922,4400.256348,4374.230957,4595.512695,4474.743652,4571.410156,594,2,43,,,,0,4,0,0,0,0,0,4,4,0,0,0,2,2,4,0,,,,,,,,,,,,,,,,,,,,,,,,,,,,,,,,,,,,,,,,,,,,,,,,,,,,,,,,,,,
1782733525,1782733525,215,0,4271.538574,4303.333496,4294.871582,4229.230957,4316.922852,3830.641113,3890.256348,4148.846191,4303.974121,4400,4371.282227,4591.922852,4471.153809,4566.538574,2944,2,43,,,,0,4,0,0,0,0,0,4,4,0,0,0,2,2,4,0,,,,,,,,,,,,,,,,,,,,,,,,,,,,,,,,,,,,,,,,,,,,,,,,,,,,,,,,,,,
1782733525,1782733525,216,0,4273.974121,4301.282227,4294.871582,4231.025879,4315.769043,3832.307617,3891.666748,4148.974121,4303.077148,4399.871582,4368.077148,4590.641113,4467.307617,4560.769043,0,2,43,,,,0,4,0,0,0,0,0,4,4,0,0,0,2,2,4,0,,,,,,,,,,,,,,,,,,,,,,,,,,,,,,,,,,,,,,,,,,,,,,,,27,0,0.07008,0.335327,-0.615234,-0.710022,-0.376022,0.916005,0.036503,-47.316578,-16.131481,6.601213
1782733525,1782733525,217,0,4279.615234,4300.512695,4295,4233.717773,4315.512695,3834.230713,3894.615479,4151.025879,4303.846191,4399.743652,4364.743652,4591.922852,4464.230957,4557.05127,836,2,43,,,,0,4,0,0,0,0,0,4,4,0,0,0,2,2,4,0,,,,,,,,,,,,,,,,,,,,,,,,,,,,,,,,,,,,,,,,,,,,,,,,,,,,,,,,,,,
1782733525,1782733525,218,0,4285.897461,4301.282227,4295.128418,4235.384766,4315.897461,3836.666748,3897.05127,4154.487305,4305.128418,4399.615234,4362.05127,4595,4462.179688,4556.410156,594,2,43,,,,0,4,0,0,0,0,0,4,4,0,0,0,2,2,4,0,,,,,,,,,,,,,,,,,,,,,,,,,,,,,,,,,,,,,,,,,,,,,,,,,,,,,,,,,,,
1782733525,1782733525,219,0,4289.743652,4302.692383,4294.871582,4234.615234,4316.025879,3839.871826,3898.076904,4158.205078,4305.641113,4398.717773,4360.641113,4598.461426,4461.025879,4556.922852,2944,2,43,,,,0,4,0,0,0,0,0,4,4,0,0,0,2,2,4,0,,,,,,,,,,,,,,,,,,,,,,,,,,,,,,,,,,,,,,,,,,,,,,,,,,,,,,,,,,,
1782733525,1782733525,220,0,4289.358887,4303.461426,4294.358887,4231.282227,4315,3843.076904,3896.923096,4161.282227,4305.256348,4396.794922,4361.153809,4601.538574,4460.769043,4554.487305,0,2,43,,,,0,4,0,0,0,0,0,4,4,0,0,0,2,2,4,0,,,,,,,,,,,,,,,,,,,,,,,,,,,,,,,,,,,,,,,,,,,,,,,,,,,,,,,,,,,
1782733525,1782733525,221,0,4286.153809,4303.333496,4294.230957,4226.922852,4313.333496,3845.641113,3894.487061,4163.461426,4304.743652,4394.743652,4362.820313,4604.358887,4461.922852,4547.05127,836,2,43,,,,0,4,0,0,0,0,0,4,4,0,0,0,2,2,4,0,,,,,,,,,,,,,,,,,,,,,,,,,,,,,,,,,,,,,,,,,,,,,,,,,,,,,,,,,,,
1782733525,1782733525,222,0,4282.820313,4302.307617,4295.769043,4223.974121,4311.666504,3846.794922,3892.820557,4165.512695,4305,4393.846191,4364.358887,4606.794922,4465,4536.025879,594,2,43,,,,0,4,0,0,0,0,0,4,4,0,0,0,2,2,4,0,,,,,,,,,,,,,,,,,,,,,,,,,,,,,,,,,,,,,,,,,,,,,,,,,,,,,,,,,,,
1782733525,1782733525,223,0,4281.794922,4301.410156,4298.974121,4223.717773,4310.641113,3846.538574,3893.076904,4167.05127,4306.153809,4394.871582,4365,4607.05127,4469.230957,4525.512695,2944,2,43,,,,0,4,0,0,0,0,0,4,4,0,0,0,2,2,4,0,,,,,,,,,,,,,,,,,,,,,,,,,,,,,,,,,,,,,,,,,,,,,,,,,,,,,,,,,,,
1782733525,1782733525,224,0,4282.436035,4301.410156,4301.922852,4225.384766,4309.871582,3845.769287,3894.230713,4167.94873,4307.692383,4396.666504,4364.871582,4603.846191,4473.717773,4518.717773,0,2,43,,,,0,4,0,0,0,0,0,4,4,0,0,0,2,2,4,0,,,,,,,,,,,,,,,,,,,,,,,,,,,,,,,,,,,,,,,,,,,,,,,,28,0,0.07058,0.334351,-0.615356,-0.710327,-0.375534,0.914052,0.0199,-47.218254,-16.268333,6.724425
1782733525,1782733525,225,0,4282.563965,4302.563965,4302.563965,4227.179688,4309.230957,3846.025635,3894.358887,4167.563965,4308.974121,4397.307617,4364.615234,4596.922852,4476.922852,4516.666504,836,2,43,,,,0,4,0,0,0,0,0,4,4,0,0,0,2,2,4,0,,,,,,,,,,,,,,,,,,,,,,,,,,,,,,,,,,,,,,,,,,,,,,,,,,,,,,,,,,,
1782733525,1782733525,226,0,4280.256348,4303.846191,4300.256348,4227.563965,4308.846191,3848.589844,3892.820557,4166.666504,4309.487305,4396.025879,4364.871582,4588.589844,4478.589844,4516.922852,594,2,43,,,,0,4,0,0,0,0,0,4,4,0,0,0,2,2,4,0,,,,,,,,,,,,,,,,,,,,,,,,,,,,,,,,,,,,,,,,,,,,,,,,,,,,,,,,,,,
1782733525,1782733525,227,0,4275.384766,4304.487305,4297.436035,4226.410156,4309.102539,3853.205078,3891.281982,4166.025879,4309.102539,4393.974121,4365.641113,4581.666504,4478.461426,4515.769043,2944,2,43,,,,0,4,0,0,0,0,0,4,4,0,0,0,2,2,4,0,,,,,,,,,,,,,,,,,,,,,,,,,,,,,,,,,,,,,,,,,,,,,,,,,,,,,,,,,,,
1782733525,1782733525,228,0,4268.974121,4303.974121,4296.153809,4224.230957,4309.743652,3858.333252,3891.153809,4165.897461,4308.077148,4392.94873,4366.025879,4577.692383,4476.538574,4510.384766,0,2,43,,,,0,4,0,0,0,0,0,4,4,0,0,0,2,2,4,0,,,,,,,,,,,,,,,,,,,,,,,,,,,,,,,,,,,,,,,,,,,,,,,,,,,,,,,,,,,
1782733525,1782733525,229,0,4261.538574,4302.820313,4297.05127,4222.563965,4310.128418,3862.05127,3892.05127,4166.282227,4306.282227,4393.846191,4365.641113,4576.282227,4473.461426,4500.256348,836,2,43,,,,0,4,0,0,0,0,0,4,4,0,0,0,2,2,4,0,,,,,,,,,,,,,,,,,,,,,,,,,,,,,,,,,,,,,,,,,,,,,,,,,,,,,,,,,,,
1782733525,1782733525,230,0,4254.102539,4302.179688,4298.717773,4221.922852,4309.615234,3863.205078,3892.05127,4167.05127,4304.358887,4395.641113,4364.487305,4576.025879,4470.512695,4488.717773,594,2,43,,,,0,4,0,0,0,0,0,4,4,0,0,0,2,2,4,0,,,,,,,,,,,,,,,,,,,,,,,,,,,,,,,,,,,,,,,,,,,,,,,,,,,,,,,,,,,
1782733525,1782733525,231,0,4247.436035,4302.563965,4299.230957,4222.692383,4308.077148,3861.666748,3890.384521,4167.94873,4303.205078,4396.153809,4362.94873,4575.512695,4469.230957,4480.128418,2944,2,43,,,,0,4,0,0,0,0,0,4,4,0,0,0,2,2,4,0,,,,,,,,,,,,,,,,,,,,,,,,,,,,,,,,,,,,,,,,,,,,,,,,,,,,,,,,,,,
1782733525,1782733525,232,0,4243.461426,4303.461426,4297.563965,4224.871582,4306.410156,3858.718018,3886.923096,4168.846191,4303.205078,4394.743652,4362.179688,4574.102539,4470.641113,4476.922852,0,2,43,,,,0,4,0,0,0,0,0,4,4,0,0,0,2,2,4,0,,,,,,,,,,,,,,,,,,,,,,,,,,,,,,,,,,,,,,,,,,,,,,,,29,0,0.070979,0.333374,-0.615417,-0.710693,-0.387254,0.926261,0.008668,-46.879761,-16.308167,6.951983
1782733525,1782733525,233,0,4243.717773,4303.974121,4295.256348,4227.692383,4305.897461,3856.666748,3882.94873,4169.871582,4303.589844,4392.307617,4362.820313,4572.05127,4473.846191,4478.589844,836,2,43,,,,0,4,0,0,0,0,0,4,4,0,0,0,2,2,4,0,,,,,,,,,,,,,,,,,,,,,,,,,,,,,,,,,,,,,,,,,,,,,,,,,,,,,,,,,,,
1782733525,1782733525,234,0,4248.717773,4303.846191,4294.358887,4228.974121,4307.179688,3856.923096,3880.512939,4171.538574,4303.461426,4390.512695,4364.487305,4570.641113,4476.666504,4482.94873,594,2,43,,,,0,4,0,0,0,0,0,4,4,0,0,0,2,2,4,0,,,,,,,,,,,,,,,,,,,,,,,,,,,,,,,,,,,,,,,,,,,,,,,,,,,,,,,,,,,
1782733525,1782733525,235,0,4256.794922,4303.461426,4296.025879,4227.692383,4308.974121,3859.487061,3880.384521,4174.358887,4302.692383,4390.512695,4366.282227,4570.512695,4477.820313,4487.94873,2944,2,43,,,,0,4,0,0,0,0,0,4,4,0,0,0,2,2,4,0,,,,,,,,,,,,,,,,,,,,,,,,,,,,,,,,,,,,,,,,,,,,,,,,,,,,,,,,,,,
1782733525,1782733525,236,0,4263.974121,4303.333496,4298.974121,4224.230957,4310,3862.564209,3881.281982,4177.563965,4302.179688,4391.794922,4367.436035,4571.410156,4477.307617,4491.153809,0,2,43,,,,0,4,0,0,0,0,0,4,4,0,0,0,2,2,4,0,,,,,,,,,,,,,,,,,,,,,,,,,,,,,,,,,,,,,,,,,,,,,,,,,,,,,,,,,,,
1782733525,1782733525,237,0,4266.666504,4303.717773,4300.769043,4221.282227,4309.871582,3864.871826,3881.153809,4180,4302.692383,4392.692383,4368.077148,4572.436035,4477.05127,4491.153809,836,2,43,,,,0,4,0,0,0,0,0,4,4,0,0,0,2,2,4,0,,,,,,,,,,,,,,,,,,,,,,,,,,,,,,,,,,,,,,,,,,,,,,,,,,,,,,,,,,,
1782733525,1782733525,238,0,4263.974121,4304.487305,4299.871582,4220.512695,4309.615234,3865.384521,3879.487061,4181.153809,4303.974121,4391.666504,4368.974121,4572.94873,4478.717773,4488.461426,594,2,43,,,,0,4,0,0,0,0,0,4,4,0,0,0,2,2,4,0,,,,,,,,,,,,,,,,,,,,,,,,,,,,,,,,,,,,,,,,,,,,,,,,,,,,,,,,,,,
1782733525,1782733525,239,0,4260.256348,4305.128418,4296.922852,4221.666504,4310,3864.615479,3878.461426,4182.307617,4305,4389.358887,4370.512695,4573.974121,4482.692383,4486.410156,2944,2,43,,,,0,4,0,0,0,0,0,4,4,0,0,0,2,2,4,0,,,,,,,,,,,,,,,,,,,,,,,,,,,,,,,,,,,,,,,,,,,,,,,,,,,,,,,,,,,
1782733525,1782733525,240,0,4261.538574,4305.256348,4294.102539,4223.205078,4311.025879,3863.461426,3880.512939,4185.512695,4304.871582,4387.820313,4372.563965,4576.410156,4486.922852,4488.974121,0,2,43,,,,0,4,0,0,0,0,0,4,4,0,0,0,2,2,4,0,,,,,,,,,,,,,,,,,,,,,,,,,,,,,,,,,,,,,,,,,,,,,,,,30,0,0.07196,0.332703,-0.615173,-0.711121,-0.381394,0.910634,0.032597,-46.891785,-16.327349,7.023451
1782733525,1782733525,241,0,4270.256348,4304.871582,4293.846191,4223.974121,4312.05127,3863.461426,3885.897461,4191.666504,4303.589844,4388.333496,4374.615234,4579.615234,4488.974121,4497.05127,836,2,43,,,,0,4,0,0,0,0,0,4,4,0,0,0,2,2,4,0,,,,,,,,,,,,,,,,,,,,,,,,,,,,,,,,,,,,,,,,,,,,,,,,,,,,,,,,,,,
1782733525,1782733525,242,0,4282.563965,4304.358887,4296.410156,4223.974121,4312.05127,3865.512939,3891.666748,4199.358887,4302.179688,4390.384766,4376.153809,4581.794922,4487.563965,4505.641113,594,2,43,,,,0,4,0,0,0,0,0,4,4,0,0,0,2,2,4,0,1,0,1,0,0,0,0,0,0,1,0,0,0,2,1,1,,,,,,,,,,,,,,,,,,,,,,,,,,,,,,,,,,,,,,,,,,,
1782733525,1782733525,243,0,4290.384766,4304.102539,4300.384766,4223.846191,4311.025879,3869.358887,3893.076904,4204.871582,4301.538574,4391.794922,4376.666504,4580.641113,4483.589844,4508.461426,2944,2,43,,,,0,4,0,0,0,0,0,4,4,0,0,0,2,2,4,0,,,,,,,,,,,,,,,,,,,,,,,,,,,,,,,,,,,,,,,,,,,,,,,,,,,,,,,,,,,
1782733525,1782733525,244,0,4288.333496,4304.102539,4303.333496,4223.974121,4309.487305,3872.94873,3888.333252,4205.769043,4302.436035,4390.769043,4376.153809,4575.641113,4478.846191,4502.436035,0,2,43,,,,0,4,0,0,0,0,0,4,4,0,0,0,2,2,4,0,,,,,,,,,,,,,,,,,,,,,,,,,,,,,,,,,,,,,,,,,,,,,,,,,,,,,,,,,,,
1782733525,1782733525,245,0,4278.974121,4303.717773,4304.230957,4224.743652,4308.205078,3874.871826,3880.384521,4202.307617,4303.589844,4387.05127,4374.871582,4568.717773,4475,4491.282227,836,2,43,,,,0,4,0,0,0,0,0,4,4,0,0,0,2,2,4,0,,,,,,,,,,,,,,,,,,,,,,,,,,,,,,,,,,,,,,,,,,,,,,,,,,,,,,,,,,,
1782733525,1782733525,246,0,4269.743652,4302.436035,4303.717773,4226.153809,4307.436035,3874.871826,3875.256348,4198.333496,4304.102539,4382.692383,4373.846191,4562.563965,4472.94873,4481.282227,594,2,43,,,,0,4,0,0,0,0,0,4,4,0,0,0,2,2,4,0,,,,,,,,,,,,,,,,,,,,,,,,,,,,,,,,,,,,,,,,,,,,,,,,,,,,,,,,,,,
1782733525,1782733525,247,0,4267.307617,4300.769043,4303.205078,4227.307617,4307.307617,3874.615479,3876.538574,4197.563965,4303.205078,4380,4373.589844,4559.358887,4473.077148,4477.05127,2944,2,43,,,,0,4,0,0,0,0,0,4,4,0,0,0,2,2,4,0,,,,,,,,,,,,,,,,,,,,,,,,,,,,,,,,,,,,,,,,,,,,,,,,,,,,,,,,,,,
1782733525,1782733525,248,0,4272.436035,4299.615234,4303.461426,4227.436035,4307.94873,3875.641113,3882.820557,4201.282227,4301.666504,4379.743652,4374.871582,4559.487305,4475.384766,4479.230957,0,2,43,,,,0,4,0,0,0,0,0,4,4,0,0,0,2,2,4,0,,,,,,,,,,,,,,,,,,,,,,,,,,,,,,,,,,,,,,,,,,,,,,,,31,0,0.073342,0.332764,-0.614624,-0.711426,-0.373092,0.932121,0.021853,-46.952606,-16.36128,7.104439
1782733525,1782733525,249,0,4279.743652,4300,4304.230957,4226.666504,4309.230957,3878.333252,3889.615479,4207.692383,4300.897461,4380.641113,4376.794922,4561.538574,4478.974121,4485,836,2,43,,,,0,4,0,0,0,0,0,4,4,0,0,0,2,2,4,0,,,,,,,,,,,,,,,,,,,,,,,,,,,,,,,,,,,,,,,,,,,,,,,,,,,,,,,,,,,
1782733525,1782733525,250,0,4283.205078,4301.666504,4304.871582,4225.641113,4310,3881.923096,3892.435791,4213.077148,4301.538574,4381.025879,4378.333496,4563.461426,4482.436035,4489.871582,594,2,43,,,,0,4,0,0,0,0,0,4,4,0,0,0,2,2,4,0,,,,,,,,,,,,,,,,,,,,,,,,,,,,,,,,,,,,,,,,,,,,,,,,,,,,,,,,,,,
1782733525,1782733525,251,0,4279.743652,4303.846191,4304.487305,4225.384766,4309.487305,3885,3890.256348,4215,4303.333496,4379.871582,4378.717773,4563.333496,4483.846191,4489.743652,2944,2,43,,,,0,4,0,0,0,0,0,4,4,0,0,0,2,2,4,0,,,,,,,,,,,,,,,,,,,,,,,,,,,,,,,,,,,,,,,,,,,,,,,,,,,,,,,,,,,
1782733525,1782733525,252,0,4271.666504,4305.256348,4303.205078,4225.384766,4307.436035,3886.794922,3884.615479,4213.717773,4305.256348,4377.820313,4377.94873,4560.769043,4482.820313,4483.077148,0,2,43,,,,0,4,0,0,0,0,0,4,4,0,0,0,2,2,4,0,,,,,,,,,,,,,,,,,,,,,,,,,,,,,,,,,,,,,,,,,,,,,,,,,,,,,,,,,,,
1782733525,1782733525,253,0,4264.102539,4305.256348,4301.794922,4225,4304.743652,3887.820557,3878.974365,4211.538574,4306.410156,4376.538574,4376.538574,4556.666504,4480.512695,4472.179688,836,2,43,,,,0,4,0,0,0,0,0,4,4,0,0,0,2,2,4,0,,,,,,,,,,,,,,,,,,,,,,,,,,,,,,,,,,,,,,,,,,,,,,,,,,,,,,,,,,,
1782733525,1782733525,254,0,4260.641113,4304.358887,4301.282227,4223.846191,4303.077148,3889.102539,3876.538574,4211.153809,4306.538574,4377.179688,4375.384766,4552.05127,4478.589844,4461.538574,594,2,43,,,,0,4,0,0,0,0,0,4,4,0,0,0,2,2,4,0,,,,,,,,,,,,,,,,,,,,,,,,,,,,,,,,,,,,,,,,,,,,,,,,,,,,,,,,,,,
1782733525,1782733525,255,0,4260.384766,4303.589844,4302.436035,4222.563965,4303.461426,3891.025635,3878.205078,4213.333496,4305.897461,4379.358887,4374.871582,4548.205078,4478.846191,4456.153809,43,2,43,,,,0,4,0,0,0,0,0,4,4,0,0,0,2,2,4,0,,,,,,,,,,,,,,,,,,,,,,,,,,,,,,,,,,,,,,,,,,,,,,,,,,,,,,,,,,,
1782733525,1782733525,0,0,4258.974121,4303.717773,4304.743652,4222.307617,4305.512695,3893.076904,3882.820557,4216.410156,4305.641113,4381.282227,4375.256348,4545.897461,4481.794922,4458.461426,0,2,43,,,,0,4,0,0,0,0,0,4,4,0,0,0,2,2,4,0,,,,,,,,,,,,,,,,,,,,,,,,,,,,,,,,,,,,,,,,,,,,,,,,0,0,0.075387,0.33252,-0.614014,-0.711853,-0.363814,0.918935,0.047735,-46.79068,-16.208487,7.227329
1782733525,1782733525,1,0,4254.102539,4304.487305,4307.436035,4222.307617,4308.077148,3895.256348,3888.333252,4218.589844,4306.282227,4381.025879,4375.897461,4545.769043,4486.153809,4467.307617,0,2,43,,,,0,4,0,0,0,0,0,4,4,0,0,0,2,2,4,0,,,,,,,,,,,,,,,,,,,,,,,,,,,,,,,,,,,,,,,,,,,,,,,,,,,,,,,,,,,
1782733525,1782733525,2,0,4246.153809,4304.871582,4309.615234,4221.538574,4309.615234,3896.794922,3892.820557,4219.102539,4307.94873,4378.333496,4375.897461,4547.05127,4489.487305,4477.692383,2443,2,43,,,,0,4,0,0,0,0,0,4,4,0,0,0,2,2,4,0,,,,,,,,,,,,,,,,,,,,,,,,,,,,,,,,,,,,,,,,,,,,,,,,,,,,,,,,,,,
1782733525,1782733525,3,0,4238.077148,4304.358887,4310.384766,4219.743652,4309.615234,3897.94873,3895.128174,4218.589844,4309.615234,4374.487305,4374.871582,4547.94873,4489.358887,4482.563965,0,2,43,,,,0,4,0,0,0,0,0,4,4,0,0,0,2,2,4,0,,,,,,,,,,,,,,,,,,,,,,,,,,,,,,,,,,,,,,,,,,,,,,,,,,,,,,,,,,,
1782733525,1782733525,4,0,4231.666504,4302.94873,4309.615234,4217.563965,4308.589844,3898.461426,3895.128174,4217.820313,4310.256348,4371.282227,4372.94873,4546.025879,4485.512695,4477.179688,0,2,43,,,,0,4,0,0,0,0,0,4,4,0,0,0,2,2,4,0,,,,,,,,,,,,,,,,,,,,,,,,,,,,,,,,,,,,,,,,,,,,,,,,,,,,,,,,,,,
1782733525,1782733525,5,0,4227.05127,4301.410156,4308.077148,4216.538574,4307.436035,3899.102539,3893.846191,4217.692383,4308.974121,4370,4370.384766,4539.871582,4480.512695,4463.205078,0,2,43,,,,0,4,0,0,0,0,0,4,4,0,0,0,2,2,4,0,,,,,,,,,,,,,,,,,,,,,,,,,,,,,,,,,,,,,,,,,,,,,,,,,,,,,,,,,,,
1782733525,1782733525,6,0,4223.205078,4300.769043,4307.179688,4217.05127,4306.410156,3900.384521,3893.076904,4218.205078,4306.282227,4370.384766,4367.94873,4530.769043,4477.94873,4447.820313,2242,2,43,,,,0,4,0,0,0,0,0,4,4,0,0,0,2,2,4,0,,,,,,,,,,,,,,,,,,,,,,,,,,,,,,,,,,,,,,,,,,,,,,,,,,,,,,,,,,,
1782733525,1782733525,7,0,4220,4301.666504,4307.692383,4218.205078,4305.128418,3902.692383,3893.333252,4218.846191,4303.717773,4371.538574,4366.410156,4522.05127,4479.102539,4438.077148,2307,2,43,,,,0,4,0,0,0,0,0,4,4,0,0,0,2,2,4,0,,,,,,,,,,,,,,,,,,,,,,,,,,,,,,,,,,,,,,,,,,,,,,,,,,,,,,,,,,,
1782733525,1782733525,8,0,4217.94873,4303.333496,4308.974121,4218.461426,4303.461426,3906.153809,3894.615479,4218.974121,4302.94873,4372.820313,4366.153809,4516.922852,4482.436035,4436.410156,0,2,43,,,,0,4,0,0,0,0,0,4,4,0,0,0,2,2,4,0,,,,,,,,,,,,,,,,,,,,,,,,,,,,,,,,,,,,,,,,,,,,,,,,1,0,0.077923,0.331604,-0.613342,-0.712585,-0.371627,0.933586,0.030155,-46.728279,-16.237638,7.271263
1782733525,1782733525,9,0,4217.05127,4304.615234,4309.871582,4216.922852,4302.179688,3910.384521,3896.281982,4218.717773,4304.230957,4373.846191,4366.794922,4517.179688,4485.128418,4439.102539,0,2,43,,,,0,4,0,0,0,0,0,4,4,0,0,0,2,2,4,0,,,,,,,,,,,,,,,,,,,,,,,,,,,,,,,,,,,,,,,,,,,,,,,,,,,,,,,,,,,
1782733525,1782733525,10,0,4216.666504,4304.358887,4309.871582,4213.974121,4301.922852,3914.743652,3898.333252,4218.717773,4306.282227,4374.487305,4366.666504,4521.025879,4485.256348,4440.384766,597,2,43,,,,0,4,0,0,0,0,0,4,4,0,0,0,2,2,4,0,,,,,,,,,,,,,,,,,,,,,,,,,,,,,,,,,,,,,,,,,,,,,,,,,,,,,,,,,,,
1782733525,1782733525,11,0,4215.897461,4302.820313,4309.230957,4211.153809,4303.461426,3918.461426,3900.897461,4219.487305,4307.563965,4374.487305,4365,4525.128418,4482.820313,4437.563965,2977,2,43,,,,0,4,0,0,0,0,0,4,4,0,0,0,2,2,4,0,,,,,,,,,,,,,,,,,,,,,,,,,,,,,,,,,,,,,,,,,,,,,,,,,,,,,,,,,,,
1782733525,1782733525,12,0,4214.615234,4300.769043,4308.717773,4209.871582,4306.153809,3920.128174,3903.974365,4220.897461,4307.179688,4373.461426,4362.179688,4526.282227,4478.846191,4432.307617,0,2,43,,,,0,4,0,0,0,0,0,4,4,0,0,0,2,2,4,0,,,,,,,,,,,,,,,,,,,,,,,,,,,,,,,,,,,,,,,,,,,,,,,,,,,,,,,,,,,
1782733525,1782733525,13,0,4213.461426,4299.487305,4308.589844,4210.384766,4309.358887,3919.871826,3907.564209,4221.922852,4305.512695,4371.538574,4359.743652,4523.461426,4475.384766,4427.307617,814,2,43,,,,0,4,0,0,0,0,0,4,4,0,0,0,2,2,4,0,,,,,,,,,,,,,,,,,,,,,,,,,,,,,,,,,,,,,,,,,,,,,,,,,,,,,,,,,,,
1782733525,1782733525,14,0,4213.589844,4299.487305,4308.461426,4211.282227,4312.820313,3918.461426,3910.641113,4222.05127,4304.358887,4369.743652,4358.974121,4517.692383,4473.589844,4423.333496,597,2,43,,,,0,4,0,0,0,0,0,4,4,0,0,0,2,2,4,0,,,,,,,,,,,,,,,,,,,,,,,,,,,,,,,,,,,,,,,,,,,,,,,,,,,,,,,,,,,
1782733525,1782733525,15,0,4215.128418,4301.410156,4308.077148,4211.282227,4316.922852,3917.435791,3912.692383,4221.410156,4304.487305,4368.974121,4359.871582,4511.282227,4473.974121,4419.615234,2977,2,43,,,,0,4,0,0,0,0,0,4,4,0,0,0,2,2,4,0,,,,,,,,,,,,,,,,,,,,,,,,,,,,,,,,,,,,,,,,,,,,,,,,,,,,,,,,,,,
1782733525,1782733525,16,0,4217.820313,4304.230957,4307.05127,4210,4321.282227,3917.94873,3913.589844,4220.641113,4306.153809,4370,4360.897461,4506.538574,4475.512695,4415.512695,0,2,43,,,,0,4,0,0,0,0,0,4,4,0,0,0,2,2,4,0,,,,,,,,,,,,,,,,,,,,,,,,,,,,,,,,,,,,,,,,,,,,,,,,2,0,0.079309,0.33075,-0.613342,-0.71283,-0.371627,0.929679,0.026248,-46.60545,-16.53054,7.12747
1782733525,1782733525,17,0,4220.769043,4306.410156,4305.769043,4208.333496,4323.974121,3920,3913.846191,4220.256348,4308.077148,4371.666504,4360.641113,4504.615234,4476.794922,4411.538574,814,2,43,,,,0,4,0,0,0,0,0,4,4,0,0,0,2,2,4,0,,,,,,,,,,,,,,,,,,,,,,,,,,,,,,,,,,,,,,,,,,,,,,,,,,,,,,,,,,,
1782733525,1782733525,18,0,4221.410156,4306.666504,4303.974121,4207.692383,4323.461426,3922.564209,3913.461426,4219.615234,4308.846191,4372.692383,4358.974121,4504.230957,4476.538574,4407.563965,597,2,43,,,,0,4,0,0,0,0,0,4,4,0,0,0,2,2,4,0,,,,,,,,,,,,,,,,,,,,,,,,,,,,,,,,,,,,,,,,,,,,,,,,,,,,,,,,,,,
1782733525,1782733525,19,0,4217.820313,4304.358887,4301.538574,4208.205078,4319.743652,3924.487061,3912.179443,4218.205078,4308.077148,4372.179688,4356.922852,4503.461426,4474.871582,4402.436035,2977,2,43,,,,0,4,0,0,0,0,0,4,4,0,0,0,2,2,4,0,,,,,,,,,,,,,,,,,,,,,,,,,,,,,,,,,,,,,,,,,,,,,,,,,,,,,,,,,,,
1782733525,1782733525,20,0,4210.256348,4300.641113,4298.717773,4208.717773,4315.256348,3925.769287,3910.256348,4216.538574,4306.794922,4370.512695,4355.641113,4501.666504,4471.922852,4395.512695,0,2,43,,,,0,4,0,0,0,0,0,4,4,0,0,0,2,2,4,0,,,,,,,,,,,,,,,,,,,,,,,,,,,,,,,,,,,,,,,,,,,,,,,,,,,,,,,,,,,
1782733525,1782733525,21,0,4201.666504,4297.820313,4295.641113,4207.692383,4313.333496,3927.307617,3909.487061,4216.282227,4306.538574,4368.461426,4356.025879,4498.974121,4467.820313,4388.077148,814,2,43,,,,0,4,0,0,0,0,0,4,4,0,0,0,2,2,4,0,,,,,,,,,,,,,,,,,,,,,,,,,,,,,,,,,,,,,,,,,,,,,,,,,,,,,,,,,,,
1782733525,1782733525,22,0,4196.538574,4297.563965,4293.205078,4205.897461,4316.153809,3929.487061,3912.05127,4219.358887,4307.820313,4366.794922,4357.820313,4496.666504,4463.589844,4383.333496,597,2,43,,,,0,4,0,0,0,0,0,4,4,0,0,0,2,2,4,0,,,,,,,,,,,,,,,,,,,,,,,,,,,,,,,,,,,,,,,,,,,,,,,,,,,,,,,,,,,
1782733525,1782733525,23,0,4197.820313,4299.743652,4291.794922,4204.615234,4322.563965,3932.05127,3918.461426,4226.025879,4309.871582,4366.025879,4360.256348,4496.153809,4460.769043,4385.128418,2977,2,43,,,,0,4,0,0,0,0,0,4,4,0,0,0,2,2,4,0,,,,,,,,,,,,,,,,,,,,,,,,,,,,,,,,,,,,,,,,,,,,,,,,,,,,,,,,,,,
1782733525,1782733525,24,0,4206.025879,4302.692383,4292.179688,4205,4329.487305,3933.974365,3926.025635,4233.333496,4310.897461,4366.025879,4362.692383,4497.307617,4461.794922,4394.487305,0,2,43,,,,0,4,0,0,0,0,0,4,4,0,0,0,2,2,4,0,,,,,,,,,,,,,,,,,,,,,,,,,,,,,,,,,,,,,,,,,,,,,,,,3,0,0.081625,0.330017,-0.61322,-0.713013,-0.380418,0.932609,0.041875,-46.344906,-16.610821,7.13139
1782733525,1782733525,25,0,4218.461426,4304.102539,4294.358887,4206.922852,4333.846191,3934.743652,3930.897461,4237.563965,4310,4366.410156,4364.230957,4498.461426,4467.179688,4407.94873,814,2,43,,,,0,4,0,0,0,0,0,4,4,0,0,0,2,2,4,0,,,,,,,,,,,,,,,,,,,,,,,,,,,,,,,,,,,,,,,,,,,,,,,,,,,,,,,,,,,
1782733525,1782733525,26,0,4230.512695,4303.333496,4297.94873,4209.230957,4334.102539,3935,3931.410156,4237.179688,4307.436035,4366.922852,4364.615234,4497.307617,4474.743652,4418.205078,597,2,43,,,,0,4,0,0,0,0,0,4,4,0,0,0,2,2,4,0,,,,,,,,,,,,,,,,,,,,,,,,,,,,,,,,,,,,,,,,,,,,,,,,,,,,,,,,,,,
1782733525,1782733525,27,0,4238.077148,4301.282227,4302.179688,4210.384766,4331.282227,3936.025635,3929.102539,4234.743652,4304.871582,4367.436035,4363.846191,4492.94873,4481.153809,4420,2977,2,43,,,,0,4,0,0,0,0,0,4,4,0,0,0,2,2,4,0,,,,,,,,,,,,,,,,,,,,,,,,,,,,,,,,,,,,,,,,,,,,,,,,,,,,,,,,,,,
1782733525,1782733525,28,0,4239.615234,4299.615234,4305.641113,4209.743652,4328.205078,3938.589844,3928.205078,4233.974121,4303.974121,4367.820313,4362.563965,4486.410156,4484.102539,4413.333496,0,2,43,,,,0,4,0,0,0,0,0,4,4,0,0,0,2,2,4,0,,,,,,,,,,,,,,,,,,,,,,,,,,,,,,,,,,,,,,,,,,,,,,,,,,,,,,,,,,,
1782733525,1782733525,29,0,4236.025879,4299.743652,4307.563965,4207.307617,4327.436035,3942.179443,3931.153809,4236.922852,4305.641113,4367.436035,4361.666504,4479.615234,4482.563965,4402.820313,814,2,43,,,,0,4,0,0,0,0,0,4,4,0,0,0,2,2,4,0,,,,,,,,,,,,,,,,,,,,,,,,,,,,,,,,,,,,,,,,,,,,,,,,,,,,,,,,,,,
1782733525,1782733525,30,0,4229.358887,4301.794922,4307.692383,4205,4330.128418,3945.641113,3936.410156,4241.794922,4308.589844,4365.769043,4361.794922,4474.230957,4477.307617,4392.820313,597,2,43,,,,0,4,0,0,0,0,0,4,4,0,0,0,2,2,4,0,,,,,,,,,,,,,,,,,,,,,,,,,,,,,,,,,,,,,,,,,,,,,,,,,,,,,,,,,,,
1782733525,1782733525,31,0,4221.794922,4304.230957,4305.897461,4204.743652,4334.358887,3947.94873,3940.256348,4245.256348,4311.282227,4363.205078,4362.94873,4470.641113,4470.512695,4385.384766,2977,2,43,,,,0,4,0,0,0,0,0,4,4,0,0,0,2,2,4,0,,,,,,,,,,,,,,,,,,,,,,,,,,,,,,,,,,,,,,,,,,,,,,,,,,,,,,,,,,,
1782733525,1782733525,32,0,4216.025879,4305.384766,4303.077148,4206.794922,4337.692383,3948.974365,3940.512939,4245,4312.307617,4361.282227,4364.230957,4468.333496,4465,4380.769043,0,2,43,,,,0,4,0,0,0,0,0,4,4,0,0,0,2,2,4,0,,,,,,,,,,,,,,,,,,,,,,,,,,,,,,,,,,,,,,,,,,,,,,,,4,0,0.084026,0.329773,-0.613098,-0.712952,-0.357954,0.939446,0.030643,-46.410416,-16.599737,7.301584
1782733525,1782733525,33,0,4214.358887,4304.487305,4300.128418,4209.615234,4338.846191,3949.615479,3938.718018,4242.179688,4311.410156,4361.153809,4364.358887,4467.05127,4462.692383,4378.846191,0,2,43,,,,0,4,0,0,0,0,0,4,4,0,0,0,2,2,4,0,,,,,,,,,,,,,,,,,,,,,,,,,,,,,,,,,,,,,,,,,,,,,,,,,,,,,,,,,,,
1782733525,1782733525,34,0,4217.820313,4302.94873,4297.94873,4211.153809,4337.94873,3950.769287,3937.94873,4240.256348,4309.615234,4362.179688,4363.333496,4466.538574,4463.717773,4379.871582,0,2,43,,,,0,4,0,0,0,0,0,4,4,0,0,0,2,2,4,0,,,,,,,,,,,,,,,,,,,,,,,,,,,,,,,,,,,,,,,,,,,,,,,,,,,,,,,,,,,
1782733525,1782733525,35,0,4225.128418,4302.179688,4296.794922,4210.384766,4336.282227,3952.564209,3939.358887,4242.05127,4308.333496,4362.94873,4362.563965,4466.666504,4466.282227,4383.077148,0,2,43,,,,0,4,0,0,0,0,0,4,4,0,0,0,2,2,4,0,,,,,,,,,,,,,,,,,,,,,,,,,,,,,,,,,,,,,,,,,,,,,,,,,,,,,,,,,,,
1782733525,1782733525,36,0,4232.436035,4302.563965,4296.794922,4208.077148,4335.641113,3954.230713,3941.794922,4247.436035,4308.589844,4362.563965,4364.102539,4467.307617,4468.077148,4386.794922,0,2,43,,,,0,4,0,0,0,0,0,4,4,0,0,0,2,2,4,0,,,,,,,,,,,,,,,,,,,,,,,,,,,,,,,,,,,,,,,,,,,,,,,,,,,,,,,,,,,
1782733525,1782733525,37,0,4235.769043,4303.333496,4297.820313,4206.282227,4337.307617,3955,3942.94873,4253.205078,4309.871582,4361.282227,4368.077148,4468.333496,4468.717773,4388.846191,0,2,43,,,,0,4,0,0,0,0,0,4,4,0,0,0,2,2,4,0,,,,,,,,,,,,,,,,,,,,,,,,,,,,,,,,,,,,,,,,,,,,,,,,,,,,,,,,,,,
1782733525,1782733525,38,0,4234.743652,4303.461426,4299.743652,4206.538574,4341.025879,3954.871826,3942.564209,4256.666504,4310.769043,4360.641113,4372.179688,4469.487305,4469.230957,4389.102539,0,2,43,,,,0,4,0,0,0,0,0,4,4,0,0,0,2,2,4,0,,,,,,,,,,,,,,,,,,,,,,,,,,,,,,,,,,,,,,,,,,,,,,,,,,,,,,,,,,,
1782733525,1782733525,39,0,4232.307617,4303.205078,4302.563965,4208.974121,4344.871582,3955.384521,3942.692383,4258.461426,4310.128418,4361.282227,4373.846191,4470,4470.897461,4389.487305,0,2,43,,,,0,4,0,0,0,0,0,4,4,0,0,0,2,2,4,0,,,,,,,,,,,,,,,,,,,,,,,,,,,,,,,,,,,,,,,,,,,,,,,,,,,,,,,,,,,
1782733525,1782733525,40,0,4232.820313,4303.077148,4305.384766,4212.05127,4347.179688,3957.692383,3945.256348,4260.897461,4308.077148,4362.692383,4372.436035,4470,4474.102539,4392.692383,0,2,43,,,,0,4,0,0,0,0,0,4,4,0,0,0,2,2,4,0,,,,,,,,,,,,,,,,,,,,,,,,,,,,,,,,,,,,,,,,,,,,,,,,5,0,0.085717,0.329773,-0.612793,-0.713013,-0.35307,0.938957,0.03162,-46.669373,-16.70643,7.254759
1782733525,1782733525,41,0,4236.153809,4303.205078,4307.563965,4213.846191,4347.436035,3962.307617,3949.743652,4265,4305.769043,4363.846191,4369.743652,4469.102539,4476.794922,4397.563965,0,2,43,,,,0,4,0,0,0,0,0,4,4,0,0,0,2,2,4,0,,,,,,,,,,,,,,,,,,,,,,,,,,,,,,,,,,,,,,,,,,,,,,,,,,,,,,,,,,,
1782733525,1782733525,42,0,4238.077148,4302.820313,4308.205078,4213.077148,4346.666504,3967.94873,3954.102539,4268.846191,4304.358887,4363.974121,4368.461426,4466.666504,4476.666504,4399.487305,0,2,43,,,,0,4,0,0,0,0,0,4,4,0,0,0,2,2,4,0,,,,,,,,,,,,,,,,,,,,,,,,,,,,,,,,,,,,,,,,,,,,,,,,,,,,,,,,,,,
1782733525,1782733525,43,0,4234.615234,4301.410156,4308.077148,4210.512695,4346.538574,3972.564209,3955.897461,4270.384766,4304.358887,4363.589844,4370,4462.820313,4473.717773,4394.743652,0,2,43,,,,0,4,0,0,0,0,0,4,4,0,0,0,2,2,4,0,,,,,,,,,,,,,,,,,,,,,,,,,,,,,,,,,,,,,,,,,,,,,,,,,,,,,,,,,,,
1782733525,1782733525,44,0,4226.794922,4298.846191,4307.94873,4208.717773,4347.820313,3975.128174,3955.256348,4269.358887,4305.641113,4363.717773,4373.461426,4458.589844,4470.256348,4384.615234,0,2,43,,,,0,4,0,0,0,0,0,4,4,0,0,0,2,2,4,0,,,,,,,,,,,,,,,,,,,,,,,,,,,,,,,,,,,,,,,,,,,,,,,,,,,,,,,,,,,
1782733525,1782733525,45,0,4219.743652,4296.538574,4308.461426,4210.256348,4349.871582,3975.641113,3954.230713,4267.94873,4307.820313,4363.974121,4377.307617,4455.256348,4469.615234,4375.128418,0,2,43,,,,0,4,0,0,0,0,0,4,4,0,0,0,2,2,4,0,,,,,,,,,,,,,,,,,,,,,,,,,,,,,,,,,,,,,,,,,,,,,,,,,,,,,,,,,,,
1782733525,1782733525,46,0,4217.692383,4295.641113,4308.974121,4215.128418,4351.666504,3975.641113,3954.358887,4268.461426,4310.256348,4363.846191,4379.615234,4453.974121,4472.563965,4371.666504,0,2,43,,,,0,4,0,0,0,0,0,4,4,0,0,0,2,2,4,0,,,,,,,,,,,,,,,,,,,,,,,,,,,,,,,,,,,,,,,,,,,,,,,,,,,,,,,,,,,
1782733525,1782733525,47,0,4221.025879,4296.922852,4308.589844,4221.538574,4352.307617,3976.538574,3955.256348,4271.025879,4311.666504,4363.205078,4379.871582,4454.487305,4477.307617,4375,0,2,43,,,,0,4,0,0,0,0,0,4,4,0,0,0,2,2,4,0,,,,,,,,,,,,,,,,,,,,,,,,,,,,,,,,,,,,,,,,,,,,,,,,,,,,,,,,,,,
1782733525,1782733525,48,0,4227.436035,4299.743652,4306.666504,4226.922852,4351.410156,3979.102539,3956.281982,4274.615234,4311.153809,4362.307617,4378.589844,4455.512695,4481.025879,4382.05127,0,2,43,,,,0,4,0,0,0,0,0,4,4,0,0,0,2,2,4,0,,,,,,,,,,,,,,,,,,,,,,,,,,,,,,,,,,,,,,,,,,,,,,,,6,0,0.089488,0.329773,-0.612183,-0.713074,-0.352582,0.921377,0.041387,-46.702435,-16.469122,7.162616
1782733525,1782733525,49,0,4234.358887,4302.820313,4304.487305,4230,4349.487305,3982.692383,3958.333252,4278.205078,4309.102539,4361.538574,4377.307617,4455.769043,4482.307617,4389.487305,0,2,43,,,,0,4,0,0,0,0,0,4,4,0,0,0,2,2,4,0,,,,,,,,,,,,,,,,,,,,,,,,,,,,,,,,,,,,,,,,,,,,,,,,,,,,,,,,,,,
1782733525,1782733525,50,0,4241.410156,4304.743652,4303.589844,4230.512695,4347.692383,3986.410156,3963.846191,4283.077148,4307.179688,4361.410156,4376.666504,4454.871582,4482.692383,4396.666504,0,2,43,,,,0,4,0,0,0,0,0,4,4,0,0,0,2,2,4,0,,,,,,,,,,,,,,,,,,,,,,,,,,,,,,,,,,,,,,,,,,,,,,,,,,,,,,,,,,,
1782733525,1782733525,51,0,4248.974121,4304.615234,4305.256348,4229.871582,4346.922852,3989.487061,3973.333252,4290.128418,4306.666504,4361.794922,4376.922852,4452.94873,4484.615234,4405,0,2,43,,,,0,4,0,0,0,0,0,4,4,0,0,0,2,2,4,0,,,,,,,,,,,,,,,,,,,,,,,,,,,,,,,,,,,,,,,,,,,,,,,,,,,,,,,,,,,
1782733525,1782733525,52,0,4255.897461,4302.436035,4308.974121,4228.717773,4347.307617,3991.281982,3983.846191,4297.94873,4308.333496,4362.307617,4377.563965,4450.128418,4489.358887,4413.205078,0,2,43,,,,0,4,0,0,0,0,0,4,4,0,0,0,2,2,4,0,,,,,,,,,,,,,,,,,,,,,,,,,,,,,,,,,,,,,,,,,,,,,,,,,,,,,,,,,,,
1782733525,1782733525,53,0,4258.846191,4299.743652,4312.436035,4227.692383,4348.205078,3991.794922,3989.871826,4302.563965,4311.025879,4362.563965,4378.333496,4446.282227,4494.487305,4416.666504,0,2,43,,,,0,4,0,0,0,0,0,4,4,0,0,0,2,2,4,0,,,,,,,,,,,,,,,,,,,,,,,,,,,,,,,,,,,,,,,,,,,,,,,,,,,,,,,,,,,
1782733525,1782733525,54,0,4254.230957,4297.563965,4313.589844,4226.794922,4348.717773,3991.281982,3987.692383,4301.538574,4312.820313,4362.563965,4378.717773,4441.282227,4496.153809,4410.769043,0,2,43,,,,0,4,0,0,0,0,0,4,4,0,0,0,2,2,4,0,,,,,,,,,,,,,,,,,,,,,,,,,,,,,,,,,,,,,,,,,,,,,,,,,,,,,,,,,,,
1782733525,1782733525,55,0,4243.205078,4296.282227,4311.666504,4225.897461,4349.230957,3990.256348,3979.102539,4295.897461,4312.692383,4362.820313,4378.846191,4435.641113,4492.436035,4396.538574,0,2,43,,,,0,4,0,0,0,0,0,4,4,0,0,0,2,2,4,0,,,,,,,,,,,,,,,,,,,,,,,,,,,,,,,,,,,,,,,,,,,,,,,,,,,,,,,,,,,
1782733525,1782733525,56,0,4231.282227,4295.897461,4308.461426,4224.871582,4350.128418,3989.743652,3970.128174,4289.871582,4310.769043,4363.077148,4379.230957,4430.641113,4484.871582,4380.641113,0,2,43,,,,0,4,0,0,0,0,0,4,4,0,0,0,2,2,4,0,,,,,,,,,,,,,,,,,,,,,,,,,,,,,,,,,,,,,,,,,,,,,,,,7,0,0.091007,0.329773,-0.611816,-0.713196,-0.345745,0.931144,0.038945,-46.598858,-16.422209,7.129688
1782733525,1782733525,57,0,4224.615234,4296.538574,4307.05127,4223.974121,4351.282227,3990.384521,3966.410156,4287.179688,4308.461426,4362.563965,4379.615234,4426.794922,4478.589844,4370.256348,0,2,43,,,,0,4,0,0,0,0,0,4,4,0,0,0,2,2,4,0,,,,,,,,,,,,,,,,,,,,,,,,,,,,,,,,,,,,,,,,,,,,,,,,,,,,,,,,,,,
1782733525,1782733525,58,0,4225.384766,4297.94873,4309.615234,4223.846191,4351.666504,3992.692383,3968.974365,4289.102539,4307.05127,4360.128418,4379.615234,4423.461426,4477.436035,4367.436035,0,2,43,,,,0,4,0,0,0,0,0,4,4,0,0,0,2,2,4,0,,,,,,,,,,,,,,,,,,,,,,,,,,,,,,,,,,,,,,,,,,,,,,,,,,,,,,,,,,,
1782733525,1782733525,59,0,4230.128418,4299.871582,4315.128418,4224.358887,4351.025879,3995.641113,3974.230713,4293.205078,4307.307617,4356.153809,4379.102539,4419.615234,4481.794922,4367.820313,0,2,43,,,,0,4,0,0,0,0,0,4,4,0,0,0,2,2,4,0,,,,,,,,,,,,,,,,,,,,,,,,,,,,,,,,,,,,,,,,,,,,,,,,,,,,,,,,,,,
1782733525,1782733525,60,0,4233.589844,4301.025879,4320.769043,4225.128418,4350,3997.564209,3977.564209,4296.410156,4309.102539,4352.563965,4378.589844,4414.615234,4487.820313,4365.384766,0,2,43,,,,0,4,0,0,0,0,0,4,4,0,0,0,2,2,4,0,,,,,,,,,,,,,,,,,,,,,,,,,,,,,,,,,,,,,,,,,,,,,,,,,,,,,,,,,,,
1782733525,1782733525,61,0,4232.94873,4301.153809,4323.589844,4225.769043,4349.487305,3997.692383,3977.435791,4296.922852,4311.794922,4351.666504,4378.461426,4409.487305,4490.897461,4357.307617,0,2,43,,,,0,4,0,0,0,0,0,4,4,0,0,0,2,2,4,0,,,,,,,,,,,,,,,,,,,,,,,,,,,,,,,,,,,,,,,,,,,,,,,,,,,,,,,,,,,
1782733525,1782733525,62,0,4230.897461,4300.128418,4322.436035,4225.641113,4350.128418,3996.666748,3975.512939,4297.05127,4313.974121,4353.846191,4378.974121,4405.769043,4489.230957,4346.666504,0,2,43,,,,0,4,0,0,0,0,0,4,4,0,0,0,2,2,4,0,,,,,,,,,,,,,,,,,,,,,,,,,,,,,,,,,,,,,,,,,,,,,,,,,,,,,,,,,,,
1782733525,1782733525,63,0,4232.307617,4299.102539,4318.717773,4224.358887,4351.153809,3995.769287,3974.743652,4299.487305,4314.871582,4357.179688,4379.487305,4403.846191,4484.743652,4339.615234,0,2,43,,,,0,4,0,0,0,0,0,4,4,0,0,0,2,2,4,0,,,,,,,,,,,,,,,,,,,,,,,,,,,,,,,,,,,,,,,,,,,,,,,,,,,,,,,,,,,
1782733525,1782733525,64,0,4239.358887,4298.589844,4315,4222.436035,4352.179688,3996.025635,3976.410156,4304.871582,4314.358887,4358.846191,4379.230957,4402.94873,4481.794922,4340.512695,0,2,43,,,,0,4,0,0,0,0,0,4,4,0,0,0,2,2,4,0,,,,,,,,,,,,,,,,,,,,,,,,,,,,,,,,,,,,,,,,,,,,,,,,8,0,0.092866,0.329651,-0.611389,-0.713379,-0.359419,0.944329,0.032597,-46.388973,-16.263321,6.966719
1782733525,1782733525,65,0,4248.846191,4298.461426,4312.94873,4221.538574,4352.692383,3997.05127,3979.615479,4310.769043,4313.077148,4357.436035,4377.94873,4401.922852,4483.077148,4347.820313,0,2,43,,,,0,4,0,0,0,0,0,4,4,0,0,0,2,2,4,0,,,,,,,,,,,,,,,,,,,,,,,,,,,,,,,,,,,,,,,,,,,,,,,,,,,,,,,,,,,
1782733525,1782733525,66,0,4255.512695,4297.820313,4313.589844,4222.307617,4352.94873,3997.94873,3983.461426,4314.871582,4312.05127,4353.974121,4376.538574,4400.384766,4488.333496,4357.436035,0,2,43,,,,0,4,0,0,0,0,0,4,4,0,0,0,2,2,4,0,,,,,,,,,,,,,,,,,,,,,,,,,,,,,,,,,,,,,,,,,,,,,,,,,,,,,,,,,,,
1782733525,1782733525,67,0,4256.410156,4296.922852,4316.666504,4223.717773,4353.077148,3998.205078,3987.05127,4317.307617,4311.922852,4350.897461,4376.282227,4399.615234,4494.615234,4366.153809,0,2,43,,,,0,4,0,0,0,0,0,4,4,0,0,0,2,2,4,0,,,,,,,,,,,,,,,,,,,,,,,,,,,,,,,,,,,,,,,,,,,,,,,,,,,,,,,,,,,
1782733525,1782733525,68,0,4252.692383,4296.922852,4320.897461,4223.717773,4353.333496,3998.333252,3990.641113,4319.743652,4312.563965,4350.128418,4377.94873,4401.153809,4497.94873,4373.589844,0,2,43,,,,0,4,0,0,0,0,0,4,4,0,0,0,2,2,4,0,,,,,,,,,,,,,,,,,,,,,,,,,,,,,,,,,,,,,,,,,,,,,,,,,,,,,,,,,,,
1782733525,1782733525,69,0,4248.077148,4298.461426,4324.230957,4221.153809,4354.230957,3999.230713,3993.718018,4323.077148,4313.461426,4351.538574,4380.384766,4405,4496.794922,4379.615234,0,2,43,,,,0,4,0,0,0,0,0,4,4,0,0,0,2,2,4,0,,,,,,,,,,,,,,,,,,,,,,,,,,,,,,,,,,,,,,,,,,,,,,,,,,,,,,,,,,,
1782733525,1782733525,70,0,4246.538574,4300.769043,4324.871582,4216.538574,4356.794922,4001.538574,3995.897461,4326.538574,4314.230957,4354.487305,4381.538574,4409.230957,4492.692383,4383.205078,0,2,43,,,,0,4,0,0,0,0,0,4,4,0,0,0,2,2,4,0,,,,,,,,,,,,,,,,,,,,,,,,,,,,,,,,,,,,,,,,,,,,,,,,,,,,,,,,,,,
1782733525,1782733525,71,0,4248.974121,4302.563965,4322.179688,4212.692383,4360.769043,4004.743652,3997.179443,4329.230957,4314.358887,4357.179688,4379.615234,4411.025879,4488.846191,4382.436035,0,2,43,,,,0,4,0,0,0,0,0,4,4,0,0,0,2,2,4,0,,,,,,,,,,,,,,,,,,,,,,,,,,,,,,,,,,,,,,,,,,,,,,,,,,,,,,,,,,,
1782733525,1782733525,72,0,4253.333496,4303.205078,4317.692383,4212.307617,4365,4007.820557,3997.94873,4330.641113,4313.589844,4357.94873,4375.512695,4409.358887,4487.820313,4377.563965,0,2,43,,,,0,4,0,0,0,0,0,4,4,0,0,0,2,2,4,0,,,,,,,,,,,,,,,,,,,,,,,,,,,,,,,,,,,,,,,,,,,,,,,,9,0,0.094656,0.329651,-0.610901,-0.713562,-0.348187,0.946283,0.040899,-46.48341,-16.403656,6.986714
1782733525,1782733525,73,0,4255.769043,4303.077148,4314.102539,4215.384766,4367.692383,4009.615479,3999.102539,4331.153809,4312.179688,4356.538574,4371.922852,4405.769043,4489.743652,4370.769043,0,2,43,,,,0,4,0,0,0,0,0,4,4,0,0,0,2,2,4,0,,,,,,,,,,,,,,,,,,,,,,,,,,,,,,,,,,,,,,,,,,,,,,,,,,,,,,,,,,,
1782733525,1782733525,74,0,4253.846191,4302.307617,4313.205078,4219.487305,4367.94873,4010.512939,4000.769287,4332.179688,4310.641113,4354.102539,4371.410156,4402.94873,4492.307617,4365.384766,0,2,43,,,,0,4,0,0,0,0,0,4,4,0,0,0,2,2,4,0,,,,,,,,,,,,,,,,,,,,,,,,,,,,,,,,,,,,,,,,,,,,,,,,,,,,,,,,,,,
1782733525,1782733525,75,0,4248.974121,4301.282227,4315.384766,4222.307617,4366.410156,4011.538574,4003.076904,4334.615234,4309.743652,4352.692383,4373.333496,4402.436035,4493.717773,4362.692383,0,2,43,,,,0,4,0,0,0,0,0,4,4,0,0,0,2,2,4,0,,,,,,,,,,,,,,,,,,,,,,,,,,,,,,,,,,,,,,,,,,,,,,,,,,,,,,,,,,,
1782733525,1782733525,76,0,4245.384766,4300.384766,4319.615234,4223.333496,4364.615234,4013.461426,4005.641113,4338.717773,4309.615234,4353.077148,4375.512695,4403.205078,4493.077148,4361.666504,0,2,43,,,,0,4,0,0,0,0,0,4,4,0,0,0,2,2,4,0,,,,,,,,,,,,,,,,,,,,,,,,,,,,,,,,,,,,,,,,,,,,,,,,,,,,,,,,,,,
1782733525,1782733525,77,0,4247.692383,4300.384766,4324.230957,4223.589844,4364.358887,4016.281982,4007.94873,4343.589844,4310.384766,4354.487305,4375.897461,4403.717773,4491.794922,4360.256348,0,2,43,,,,0,4,0,0,0,0,0,4,4,0,0,0,2,2,4,0,,,,,,,,,,,,,,,,,,,,,,,,,,,,,,,,,,,,,,,,,,,,,,,,,,,,,,,,,,,
1782733525,1782733525,78,0,4256.538574,4301.153809,4328.077148,4224.358887,4365.897461,4018.846191,4009.358887,4347.692383,4311.922852,4355.512695,4374.487305,4403.205078,4491.794922,4358.333496,0,2,43,,,,0,4,0,0,0,0,0,4,4,0,0,0,2,2,4,0,,,,,,,,,,,,,,,,,,,,,,,,,,,,,,,,,,,,,,,,,,,,,,,,,,,,,,,,,,,
1782733525,1782733525,79,0,4268.589844,4301.922852,4330.128418,4225.512695,4368.077148,4020.256348,4009.230713,4350.128418,4313.333496,4355.512695,4373.205078,4402.05127,4493.974121,4357.94873,0,2,43,,,,0,4,0,0,0,0,0,4,4,0,0,0,2,2,4,0,,,,,,,,,,,,,,,,,,,,,,,,,,,,,,,,,,,,,,,,,,,,,,,,,,,,,,,,,,,
1782733525,1782733525,80,0,4277.307617,4302.307617,4330.641113,4227.05127,4368.589844,4020.384521,4008.076904,4350.384766,4313.846191,4354.615234,4373.205078,4401.025879,4497.179688,4360.769043,0,2,43,,,,0,4,0,0,0,0,0,4,4,0,0,0,2,2,4,0,,,,,,,,,,,,,,,,,,,,,,,,,,,,,,,,,,,,,,,,,,,,,,,,10,0,0.095585,0.32959,-0.610718,-0.713623,-0.366256,0.927237,0.035038,-46.451736,-16.41329,7.004709
1782733525,1782733525,81,0,4277.94873,4302.692383,4330.256348,4228.589844,4367.179688,4020.128174,4007.05127,4349.358887,4312.94873,4353.333496,4374.487305,4400.256348,4500.128418,4366.666504,0,2,43,,,,0,4,0,0,0,0,0,4,4,0,0,0,2,2,4,0,,,,,,,,,,,,,,,,,,,,,,,,,,,,,,,,,,,,,,,,,,,,,,,,,,,,,,,,,,,
1782733525,1782733525,82,0,4270.897461,4303.461426,4330,4230.897461,4365.769043,4020.769287,4008.589844,4349.743652,4310.897461,4352.05127,4375.512695,4400.128418,4501.666504,4373.077148,0,2,43,,,,0,4,0,0,0,0,0,4,4,0,0,0,2,2,4,0,,,,,,,,,,,,,,,,,,,,,,,,,,,,,,,,,,,,,,,,,,,,,,,,,,,,,,,,,,,
1782733525,1782733525,83,0,4262.436035,4304.358887,4330.641113,4234.615234,4367.436035,4022.435791,4014.230713,4353.589844,4308.974121,4351.025879,4375.512695,4400.769043,4502.05127,4378.077148,0,2,43,,,,0,4,0,0,0,0,0,4,4,0,0,0,2,2,4,0,,,,,,,,,,,,,,,,,,,,,,,,,,,,,,,,,,,,,,,,,,,,,,,,,,,,,,,,,,,
1782733525,1782733525,84,0,4258.974121,4304.615234,4332.179688,4239.615234,4373.077148,4024.615479,4022.94873,4360.384766,4307.820313,4350.384766,4374.871582,4401.538574,4501.922852,4380.897461,0,2,43,,,,0,4,0,0,0,0,0,4,4,0,0,0,2,2,4,0,,,,,,,,,,,,,,,,,,,,,,,,,,,,,,,,,,,,,,,,,,,,,,,,,,,,,,,,,,,
1782733525,1782733525,85,0,4262.436035,4303.717773,4333.589844,4245,4379.615234,4025.897461,4030.897461,4366.794922,4307.820313,4350.641113,4374.487305,4401.666504,4501.794922,4381.666504,0,2,43,,,,0,4,0,0,0,0,0,4,4,0,0,0,2,2,4,0,,,,,,,,,,,,,,,,,,,,,,,,,,,,,,,,,,,,,,,,,,,,,,,,,,,,,,,,,,,
1782733525,1782733525,86,0,4268.974121,4301.794922,4333.846191,4249.102539,4383.077148,4025.512939,4033.718018,4369.487305,4308.333496,4351.538574,4375,4401.025879,4501.410156,4381.410156,0,2,43,,,,0,4,0,0,0,0,0,4,4,0,0,0,2,2,4,0,,,,,,,,,,,,,,,,,,,,,,,,,,,,,,,,,,,,,,,,,,,,,,,,,,,,,,,,,,,
1782733525,1782733525,87,0,4274.871582,4299.487305,4332.436035,4251.153809,4381.538574,4024.102539,4031.666748,4367.94873,4309.230957,4352.563965,4375.769043,4401.153809,4500.256348,4381.025879,0,2,43,,,,0,4,0,0,0,0,0,4,4,0,0,0,2,2,4,0,,,,,,,,,,,,,,,,,,,,,,,,,,,,,,,,,,,,,,,,,,,,,,,,,,,,,,,,,,,
1782733525,1782733525,88,0,4278.717773,4297.94873,4330,4251.922852,4377.307617,4023.205078,4028.589844,4365.641113,4310.384766,4352.692383,4376.153809,4404.230957,4499.615234,4381.794922,0,2,43,,,,0,4,0,0,0,0,0,4,4,0,0,0,2,2,4,0,,,,,,,,,,,,,,,,,,,,,,,,,,,,,,,,,,,,,,,,,,,,,,,,11,0,0.09672,0.329956,-0.610413,-0.713562,-0.341839,0.932609,0.04627,-46.389896,-16.355295,7.170905
1782733525,1782733525,89,0,4281.794922,4297.307617,4327.820313,4253.589844,4373.846191,4024.230713,4029.487061,4366.410156,4311.410156,4351.922852,4375.897461,4411.538574,4500.897461,4383.461426,0,2,43,,,,0,4,0,0,0,0,0,4,4,0,0,0,2,2,4,0,,,,,,,,,,,,,,,,,,,,,,,,,,,,,,,,,,,,,,,,,,,,,,,,,,,,,,,,,,,
1782733525,1782733525,90,0,4283.717773,4297.563965,4327.436035,4256.410156,4373.205078,4026.923096,4034.615479,4371.025879,4312.179688,4350.384766,4375.769043,4421.153809,4504.487305,4384.102539,0,2,43,,,,0,4,0,0,0,0,0,4,4,0,0,0,2,2,4,0,,,,,,,,,,,,,,,,,,,,,,,,,,,,,,,,,,,,,,,,,,,,,,,,,,,,,,,,,,,
1782733525,1782733526,91,0,4281.794922,4297.94873,4329.230957,4259.358887,4374.743652,4030.384521,4039.743652,4375.897461,4311.666504,4348.974121,4376.282227,4428.717773,4508.589844,4380,0,2,43,,,,0,4,0,0,0,0,0,4,4,0,0,0,2,2,4,0,,,,,,,,,,,,,,,,,,,,,,,,,,,,,,,,,,,,,,,,,,,,,,,,,,,,,,,,,,,
1782733526,1782733526,92,0,4273.717773,4298.205078,4332.692383,4260.256348,4376.153809,4032.820557,4038.974365,4376.922852,4310,4348.205078,4377.436035,4430.512695,4510,4369.615234,0,2,43,,,,0,4,0,0,0,0,0,4,4,0,0,0,2,2,4,0,,,,,,,,,,,,,,,,,,,,,,,,,,,,,,,,,,,,,,,,,,,,,,,,,,,,,,,,,,,
1782733526,1782733526,93,0,4260.769043,4298.333496,4336.025879,4258.205078,4375.769043,4033.461426,4031.281982,4372.436035,4308.205078,4348.974121,4377.94873,4426.410156,4506.922852,4355.128418,0,2,43,,,,0,4,0,0,0,0,0,4,4,0,0,0,2,2,4,0,,,,,,,,,,,,,,,,,,,,,,,,,,,,,,,,,,,,,,,,,,,,,,,,,,,,,,,,,,,
1782733526,1782733526,94,0,4248.717773,4298.077148,4338.205078,4254.358887,4374.230957,4032.435791,4021.666748,4366.025879,4307.307617,4351.153809,4377.179688,4419.871582,4500.641113,4342.179688,0,2,43,,,,0,4,0,0,0,0,0,4,4,0,0,0,2,2,4,0,,,,,,,,,,,,,,,,,,,,,,,,,,,,,,,,,,,,,,,,,,,,,,,,,,,,,,,,,,,
1782733526,1782733526,95,0,4243.589844,4297.563965,4338.717773,4251.410156,4373.333496,4030.769287,4017.05127,4363.077148,4307.563965,4353.846191,4375.128418,4415.256348,4495.384766,4336.410156,0,2,43,,,,0,4,0,0,0,0,0,4,4,0,0,0,2,2,4,0,,,,,,,,,,,,,,,,,,,,,,,,,,,,,,,,,,,,,,,,,,,,,,,,,,,,,,,,,,,
1782733526,1782733526,96,0,4247.692383,4297.436035,4338.205078,4252.05127,4374.230957,4029.743652,4021.538574,4366.922852,4308.589844,4355.128418,4373.205078,4415.128418,4494.743652,4339.487305,0,2,43,,,,0,4,0,0,0,0,0,4,4,0,0,0,2,2,4,0,,,,,,,,,,,,,,,,,,,,,,,,,,,,,,,,,,,,,,,,,,,,,,,,12,0,0.097391,0.330078,-0.610168,-0.713623,-0.342327,0.940422,0.061409,-46.484238,-16.369764,7.087148
1782733526,1782733526,97,0,4258.333496,4298.205078,4337.94873,4256.538574,4376.025879,4029.743652,4032.435791,4376.666504,4309.871582,4354.358887,4372.94873,4418.461426,4499.743652,4348.589844,0,2,43,,,,0,4,0,0,0,0,0,4,4,0,0,0,2,2,4,0,,,,,,,,,,,,,,,,,,,,,,,,,,,,,,,,,,,,,,,,,,,,,,,,,,,,,,,,,,,
1782733526,1782733526,98,0,4269.871582,4299.358887,4338.846191,4263.205078,4376.666504,4030.769287,4043.076904,4387.692383,4310.897461,4352.05127,4374.230957,4422.179688,4507.307617,4357.94873,0,2,43,,,,0,4,0,0,0,0,0,4,4,0,0,0,2,2,4,0,,,,,,,,,,,,,,,,,,,,,,,,,,,,,,,,,,,,,,,,,,,,,,,,,,,,,,,,,,,
1782733526,1782733526,99,0,4277.179688,4300.128418,4340.769043,4269.871582,4375.128418,4031.923096,4048.076904,4395.897461,4311.410156,4349.230957,4375.897461,4423.589844,4512.692383,4363.333496,0,2,43,,,,0,4,0,0,0,0,0,4,4,0,0,0,2,2,4,0,,,,,,,,,,,,,,,,,,,,,,,,,,,,,,,,,,,,,,,,,,,,,,,,,,,,,,,,,,,
1782733526,1782733526,100,0,4279.230957,4300.128418,4343.205078,4274.358887,4372.05127,4033.076904,4046.794922,4399.230957,4311.922852,4347.05127,4376.538574,4422.563965,4513.205078,4363.974121,0,2,43,,,,0,4,0,0,0,0,0,4,4,0,0,0,2,2,4,0,,,,,,,,,,,,,,,,,,,,,,,,,,,,,,,,,,,,,,,,,,,,,,,,,,,,,,,,,,,
1782733526,1782733526,101,0,4278.717773,4299.487305,4345.256348,4276.538574,4369.615234,4034.615479,4042.94873,4398.846191,4312.692383,4346.153809,4375.769043,4421.153809,4510,4361.922852,0,2,43,,,,0,4,0,0,0,0,0,4,4,0,0,0,2,2,4,0,,,,,,,,,,,,,,,,,,,,,,,,,,,,,,,,,,,,,,,,,,,,,,,,,,,,,,,,,,,
1782733526,1782733526,102,0,4279.743652,4298.846191,4346.410156,4276.922852,4368.974121,4036.666748,4041.025635,4397.563965,4313.333496,4346.922852,4374.358887,4420.256348,4506.282227,4358.974121,0,2,43,,,,0,4,0,0,0,0,0,4,4,0,0,0,2,2,4,0,,,,,,,,,,,,,,,,,,,,,,,,,,,,,,,,,,,,,,,,,,,,,,,,,,,,,,,,,,,
1782733526,1782733526,103,0,4282.94873,4299.102539,4346.282227,4276.538574,4369.487305,4038.461426,4043.076904,4398.077148,4313.333496,4348.717773,4373.589844,4419.230957,4504.102539,4354.871582,0,2,43,,,,0,4,0,0,0,0,0,4,4,0,0,0,2,2,4,0,,,,,,,,,,,,,,,,,,,,,,,,,,,,,,,,,,,,,,,,,,,,,,,,,,,,,,,,,,,
1782733526,1782733526,104,0,4286.410156,4300.384766,4344.358887,4275.897461,4370.256348,4039.358887,4047.564209,4400.897461,4312.692383,4350.512695,4373.846191,4416.282227,4503.205078,4348.717773,0,2,43,,,,0,4,0,0,0,0,0,4,4,0,0,0,2,2,4,0,,,,,,,,,,,,,,,,,,,,,,,,,,,,,,,,,,,,,,,,,,,,,,,,13,0,0.098123,0.330444,-0.609924,-0.713562,-0.362349,0.938957,0.02869,-46.369148,-16.249454,7.1451
1782733526,1782733526,105,0,4288.461426,4302.563965,4340.897461,4275.256348,4370.128418,4039.230713,4052.05127,4404.871582,4311.666504,4351.282227,4374.487305,4411.922852,4502.820313,4341.410156,0,2,43,,,,0,4,0,0,0,0,0,4,4,0,0,0,2,2,4,0,,,,,,,,,,,,,,,,,,,,,,,,,,,,,,,,,,,,,,,,,,,,,,,,,,,,,,,,,,,
1782733526,1782733526,106,0,4290.897461,4303.846191,4337.05127,4275,4369.615234,4038.461426,4055.128174,4408.333496,4310.512695,4350.769043,4375,4409.102539,4502.563965,4337.05127,0,2,43,,,,0,4,0,0,0,0,0,4,4,0,0,0,2,2,4,0,,,,,,,,,,,,,,,,,,,,,,,,,,,,,,,,,,,,,,,,,,,,,,,,,,,,,,,,,,,
1782733526,1782733526,107,0,4296.025879,4303.461426,4335.256348,4274.615234,4368.974121,4037.94873,4057.692383,4410.384766,4309.102539,4349.487305,4375.256348,4411.025879,4502.307617,4339.102539,0,2,43,,,,0,4,0,0,0,0,0,4,4,0,0,0,2,2,4,0,,,,,,,,,,,,,,,,,,,,,,,,,,,,,,,,,,,,,,,,,,,,,,,,,,,,,,,,,,,
1782733526,1782733526,108,0,4303.974121,4301.922852,4336.666504,4273.717773,4368.846191,4038.461426,4060.769287,4411.666504,4307.692383,4348.205078,4375.256348,4417.94873,4501.666504,4346.922852,0,2,43,,,,0,4,0,0,0,0,0,4,4,0,0,0,2,2,4,0,,,,,,,,,,,,,,,,,,,,,,,,,,,,,,,,,,,,,,,,,,,,,,,,,,,,,,,,,,,
1782733526,1782733526,109,0,4310.512695,4300.769043,4340.256348,4271.666504,4369.102539,4040,4064.358887,4413.205078,4306.794922,4347.94873,4375.384766,4426.025879,4499.615234,4355.256348,0,2,43,,,,0,4,0,0,0,0,0,4,4,0,0,0,2,2,4,0,,,,,,,,,,,,,,,,,,,,,,,,,,,,,,,,,,,,,,,,,,,,,,,,,,,,,,,,,,,
1782733526,1782733526,110,0,4311.025879,4300.897461,4343.589844,4268.846191,4369.358887,4041.923096,4066.923096,4416.282227,4307.436035,4348.461426,4375.384766,4430.384766,4495.256348,4357.692383,0,2,43,,,,0,4,0,0,0,0,0,4,4,0,0,0,2,2,4,0,,,,,,,,,,,,,,,,,,,,,,,,,,,,,,,,,,,,,,,,,,,,,,,,,,,,,,,,,,,
1782733526,1782733526,111,0,4304.487305,4301.794922,4344.487305,4265.897461,4369.487305,4043.589844,4067.820557,4421.153809,4308.974121,4349.102539,4375.512695,4428.461426,4489.615234,4351.666504,0,2,43,,,,0,4,0,0,0,0,0,4,4,0,0,0,2,2,4,0,,,,,,,,,,,,,,,,,,,,,,,,,,,,,,,,,,,,,,,,,,,,,,,,,,,,,,,,,,,
1782733526,1782733526,112,0,4295,4302.692383,4342.820313,4263.717773,4370.128418,4044.102539,4067.564209,4426.538574,4310,4349.102539,4375.769043,4421.922852,4484.871582,4341.282227,0,2,43,,,,0,4,0,0,0,0,0,4,4,0,0,0,2,2,4,0,,,,,,,,,,,,,,,,,,,,,,,,,,,,,,,,,,,,,,,,,,,,,,,,14,0,0.098567,0.330933,-0.609802,-0.713379,-0.353559,0.92333,0.038457,-46.282234,-16.37451,7.297256
1782733526,1782733526,113,0,4288.717773,4302.820313,4340,4262.94873,4371.282227,4043.589844,4067.564209,4430.512695,4309.358887,4348.333496,4376.410156,4415.641113,4483.333496,4333.717773,0,2,43,,,,0,4,0,0,0,0,0,4,4,0,0,0,2,2,4,0,,,,,,,,,,,,,,,,,,,,,,,,,,,,,,,,,,,,,,,,,,,,,,,,,,,,,,,,,,,
1782733526,1782733526,114,0,4290.641113,4301.922852,4337.563965,4263.717773,4372.307617,4042.564209,4068.461426,4431.794922,4307.179688,4347.692383,4377.692383,4414.102539,4485.897461,4333.846191,0,2,43,,,,0,4,0,0,0,0,0,4,4,0,0,0,2,2,4,0,1,0,1,0,0,0,0,0,0,1,0,0,0,1,1,1,,,,,,,,,,,,,,,,,,,,,,,,,,,,,,,,,,,,,,,,,,,
1782733526,1782733526,115,0,4301.410156,4300.384766,4336.794922,4266.153809,4372.179688,4041.794922,4069.358887,4430.384766,4304.871582,4347.563965,4379.230957,4417.436035,4490.897461,4340,0,2,43,,,,0,4,0,0,0,0,0,4,4,0,0,0,2,2,4,0,,,,,,,,,,,,,,,,,,,,,,,,,,,,,,,,,,,,,,,,,,,,,,,,,,,,,,,,,,,
1782733526,1782733526,116,0,4315.897461,4299.358887,4338.077148,4269.102539,4370.897461,4041.923096,4068.846191,4428.205078,4304.230957,4347.692383,4380.384766,4422.307617,4495.256348,4345.641113,0,2,43,,,,0,4,0,0,0,0,0,4,4,0,0,0,2,2,4,0,,,,,,,,,,,,,,,,,,,,,,,,,,,,,,,,,,,,,,,,,,,,,,,,,,,,,,,,,,,
1782733526,1782733526,117,0,4326.666504,4299.743652,4341.025879,4270.897461,4369.358887,4042.564209,4066.666748,4426.794922,4305.512695,4347.436035,4380.128418,4423.461426,4495.769043,4344.487305,0,2,43,,,,0,4,0,0,0,0,0,4,4,0,0,0,2,2,4,0,,,,,,,,,,,,,,,,,,,,,,,,,,,,,,,,,,,,,,,,,,,,,,,,,,,,,,,,,,,
1782733526,1782733526,118,0,4327.692383,4300.897461,4344.487305,4270.769043,4368.077148,4043.205078,4063.974365,4426.538574,4307.05127,4346.538574,4378.077148,4418.461426,4491.922852,4335,0,2,43,,,,0,4,0,0,0,0,0,4,4,0,0,0,2,2,4,0,,,,,,,,,,,,,,,,,,,,,,,,,,,,,,,,,,,,,,,,,,,,,,,,,,,,,,,,,,,
1782733526,1782733526,119,0,4318.333496,4302.05127,4347.05127,4268.589844,4367.436035,4043.718018,4062.820557,4426.794922,4307.563965,4345.384766,4375.128418,4408.974121,4485.769043,4321.025879,0,2,43,,,,0,4,0,0,0,0,0,4,4,0,0,0,2,2,4,0,,,,,,,,,,,,,,,,,,,,,,,,,,,,,,,,,,,,,,,,,,,,,,,,,,,,,,,,,,,
1782733526,1782733526,120,0,4304.102539,4302.436035,4347.179688,4265.769043,4367.179688,4044.487061,4064.615479,4426.410156,4306.922852,4344.743652,4373.077148,4399.871582,4479.615234,4308.846191,0,2,43,,,,0,4,0,0,0,0,0,4,4,0,0,0,2,2,4,0,,,,,,,,,,,,,,,,,,,,,,,,,,,,,,,,,,,,,,,,,,,,,,,,15,0,0.099348,0.331543,-0.609558,-0.713196,-0.366256,0.932121,0.04334,-46.187344,-16.337059,7.250864
1782733526,1782733526,121,0,4292.563965,4301.922852,4344.615234,4263.461426,4366.794922,4046.538574,4068.974365,4425.641113,4305.769043,4345,4373.205078,4395.769043,4475,4302.436035,0,2,43,,,,0,4,0,0,0,0,0,4,4,0,0,0,2,2,4,0,,,,,,,,,,,,,,,,,,,,,,,,,,,,,,,,,,,,,,,,,,,,,,,,,,,,,,,,,,,
1782733526,1782733526,122,0,4288.205078,4301.282227,4340.512695,4262.563965,4366.410156,4049.487061,4073.718018,4425.384766,4304.871582,4346.153809,4374.871582,4398.205078,4472.820313,4301.922852,0,2,43,,,,0,4,0,0,0,0,0,4,4,0,0,0,2,2,4,0,,,,,,,,,,,,,,,,,,,,,,,,,,,,,,,,,,,,,,,,,,,,,,,,,,,,,,,,,,,
1782733526,1782733526,123,0,4291.282227,4301.410156,4336.922852,4262.563965,4366.538574,4052.820557,4076.923096,4426.666504,4305,4347.692383,4376.410156,4404.358887,4473.333496,4305.128418,0,2,43,,,,0,4,0,0,0,0,0,4,4,0,0,0,2,2,4,0,,,,,,,,,,,,,,,,,,,,,,,,,,,,,,,,,,,,,,,,,,,,,,,,,,,,,,,,,,,
1782733526,1782733526,124,0,4299.615234,4302.179688,4335.256348,4262.563965,4366.794922,4055.512939,4078.589844,4429.871582,4306.025879,4349.230957,4376.666504,4410.384766,4476.410156,4310.128418,0,2,43,,,,0,4,0,0,0,0,0,4,4,0,0,0,2,2,4,0,,,,,,,,,,,,,,,,,,,,,,,,,,,,,,,,,,,,,,,,,,,,,,,,,,,,,,,,,,,
1782733526,1782733526,125,0,4310.769043,4303.077148,4335.897461,4262.179688,4367.05127,4056.666748,4080.128174,4434.743652,4307.436035,4350.128418,4375.641113,4413.974121,4480.897461,4316.025879,0,2,43,,,,0,4,0,0,0,0,0,4,4,0,0,0,2,2,4,0,,,,,,,,,,,,,,,,,,,,,,,,,,,,,,,,,,,,,,,,,,,,,,,,,,,,,,,,,,,
1782733526,1782733526,126,0,4322.179688,4303.077148,4337.692383,4261.538574,4366.538574,4055.769287,4082.94873,4440.384766,4308.461426,4350,4374.743652,4414.871582,4484.102539,4322.05127,0,2,43,,,,0,4,0,0,0,0,0,4,4,0,0,0,2,2,4,0,,,,,,,,,,,,,,,,,,,,,,,,,,,,,,,,,,,,,,,,,,,,,,,,,,,,,,,,,,,
1782733526,1782733526,127,0,4330,4302.05127,4338.333496,4260.641113,4365.769043,4053.718018,4086.410156,4445,4308.461426,4348.846191,4375,4414.230957,4483.589844,4326.153809,0,2,43,,,,0,4,0,0,0,0,0,4,4,0,0,0,2,2,4,0,,,,,,,,,,,,,,,,,,,,,,,,,,,,,,,,,,,,,,,,,,,,,,,,,,,,,,,,,,,
1782733526,1782733526,128,0,4331.153809,4300.641113,4336.666504,4259.615234,4365.512695,4052.692383,4088.718018,4446.538574,4307.436035,4347.05127,4376.282227,4412.94873,4479.487305,4326.153809,0,2,43,,,,0,4,0,0,0,0,0,4,4,0,0,0,2,2,4,0,,,,,,,,,,,,,,,,,,,,,,,,,,,,,,,,,,,,,,,,,,,,,,,,16,0,0.099606,0.332214,-0.609436,-0.712952,-0.35307,0.946283,0.041387,-46.268608,-16.303352,7.442444
1782733526,1782733526,129,0,4325.769043,4299.487305,4333.589844,4258.974121,4366.666504,4054.102539,4088.846191,4445.256348,4305.769043,4345.512695,4377.436035,4411.666504,4474.487305,4321.922852,0,2,43,,,,0,4,0,0,0,0,0,4,4,0,0,0,2,2,4,0,,,,,,,,,,,,,,,,,,,,,,,,,,,,,,,,,,,,,,,,,,,,,,,,,,,,,,,,,,,
1782733526,1782733526,130,0,4316.922852,4299.102539,4331.282227,4258.846191,4368.333496,4057.435791,4088.333252,4443.717773,4304.230957,4344.743652,4377.436035,4410.512695,4471.666504,4315.384766,2436,2,43,,,,0,4,0,0,0,0,0,4,4,0,0,0,2,2,4,0,,,,,,,,,,,,,,,,,,,,,,,,,,,,,,,,,,,,,,,,,,,,,,,,,,,,,,,,,,,
1782733526,1782733526,131,0,4309.487305,4299.871582,4331.538574,4259.230957,4369.358887,4060.512939,4090,4444.487305,4303.589844,4344.358887,4376.410156,4409.487305,4472.307617,4309.615234,0,2,43,,,,0,4,0,0,0,0,0,4,4,0,0,0,2,2,4,0,,,,,,,,,,,,,,,,,,,,,,,,,,,,,,,,,,,,,,,,,,,,,,,,,,,,,,,,,,,
1782733526,1782733526,132,0,4306.922852,4302.05127,4334.615234,4259.615234,4369.102539,4061.281982,4094.871826,4448.333496,4305,4344.358887,4375.512695,4409.102539,4474.615234,4307.05127,0,2,43,,,,0,4,0,0,0,0,0,4,4,0,0,0,2,2,4,0,,,,,,,,,,,,,,,,,,,,,,,,,,,,,,,,,,,,,,,,,,,,,,,,,,,,,,,,,,,
1782733526,1782733526,133,0,4310.384766,4304.487305,4338.333496,4259.871582,4367.692383,4059.230713,4101.922852,4453.461426,4307.94873,4344.615234,4375.512695,4409.358887,4476.153809,4308.333496,0,2,43,,,,0,4,0,0,0,0,0,4,4,0,0,0,2,2,4,0,,,,,,,,,,,,,,,,,,,,,,,,,,,,,,,,,,,,,,,,,,,,,,,,,,,,,,,,,,,
1782733526,1782733526,134,0,4317.692383,4305.384766,4340.641113,4260.512695,4365.641113,4056.410156,4108.077148,4457.05127,4311.153809,4345.256348,4377.179688,4409.871582,4475.256348,4311.794922,2196,2,43,,,,0,4,0,0,0,0,0,4,4,0,0,0,2,2,4,0,,,,,,,,,,,,,,,,,,,,,,,,,,,,,,,,,,,,,,,,,,,,,,,,,,,,,,,,,,,
1782733526,1782733526,135,0,4324.743652,4304.102539,4340.897461,4262.05127,4364.102539,4055.128174,4110.384766,4457.179688,4312.692383,4346.410156,4379.487305,4409.487305,4472.179688,4313.846191,2331,2,43,,,,0,4,0,0,0,0,0,4,4,0,0,0,2,2,4,0,,,,,,,,,,,,,,,,,,,,,,,,,,,,,,,,,,,,,,,,,,,,,,,,,,,,,,,,,,,
1782733526,1782733526,136,0,4328.205078,4302.179688,4340,4264.871582,4363.589844,4056.923096,4108.077148,4454.743652,4311.666504,4347.307617,4381.025879,4407.692383,4468.846191,4312.307617,0,2,43,,,,0,4,0,0,0,0,0,4,4,0,0,0,2,2,4,0,,,,,,,,,,,,,,,,,,,,,,,,,,,,,,,,,,,,,,,,,,,,,,,,17,0,0.101489,0.333008,-0.609192,-0.712524,-0.346722,0.943841,0.041875,-46.208416,-16.239685,7.414866
1782733526,1782733526,137,0,4328.717773,4301.282227,4338.846191,4268.846191,4364.230957,4061.666748,4103.717773,4452.436035,4308.205078,4347.307617,4380.384766,4405.128418,4467.307617,4308.589844,0,2,43,,,,0,4,0,0,0,0,0,4,4,0,0,0,2,2,4,0,,,,,,,,,,,,,,,,,,,,,,,,,,,,,,,,,,,,,,,,,,,,,,,,,,,,,,,,,,,
1782733526,1782733526,138,0,4329.615234,4302.05127,4338.333496,4272.94873,4365.512695,4067.307617,4101.538574,4452.94873,4304.487305,4346.666504,4378.205078,4403.846191,4469.102539,4306.410156,607,2,43,,,,0,4,0,0,0,0,0,4,4,0,0,0,2,2,4,0,,,,,,,,,,,,,,,,,,,,,,,,,,,,,,,,,,,,,,,,,,,,,,,,,,,,,,,,,,,
1782733526,1782733526,139,0,4334.230957,4303.589844,4338.846191,4276.794922,4367.436035,4071.794922,4103.846191,4456.666504,4302.307617,4346.025879,4376.794922,4405.256348,4473.589844,4308.589844,2970,2,43,,,,0,4,0,0,0,0,0,4,4,0,0,0,2,2,4,0,,,,,,,,,,,,,,,,,,,,,,,,,,,,,,,,,,,,,,,,,,,,,,,,,,,,,,,,,,,
1782733526,1782733526,140,0,4342.307617,4304.358887,4339.615234,4279.615234,4369.743652,4074.487061,4110,4461.666504,4302.307617,4345.897461,4377.94873,4409.230957,4478.077148,4314.871582,0,2,43,,,,0,4,0,0,0,0,0,4,4,0,0,0,2,2,4,0,,,,,,,,,,,,,,,,,,,,,,,,,,,,,,,,,,,,,,,,,,,,,,,,,,,,,,,,,,,
1782733526,1782733526,141,0,4350,4304.102539,4339.743652,4281.282227,4372.179688,4075.897461,4117.05127,4464.358887,4303.846191,4346.410156,4381.666504,4413.461426,4479.358887,4321.794922,809,2,43,,,,0,4,0,0,0,0,0,4,4,0,0,0,2,2,4,0,,,,,,,,,,,,,,,,,,,,,,,,,,,,,,,,,,,,,,,,,,,,,,,,,,,,,,,,,,,
1782733526,1782733526,142,0,4353.333496,4303.589844,4338.717773,4281.922852,4373.717773,4077.307617,4121.153809,4461.794922,4305.769043,4346.794922,4386.153809,4414.230957,4477.05127,4325.384766,607,2,43,,,,0,4,0,0,0,0,0,4,4,0,0,0,2,2,4,0,,,,,,,,,,,,,,,,,,,,,,,,,,,,,,,,,,,,,,,,,,,,,,,,,,,,,,,,,,,
1782733526,1782733526,143,0,4351.282227,4303.333496,4336.922852,4282.179688,4373.589844,4079.230713,4121.282227,4454.102539,4307.05127,4346.538574,4389.230957,4410.512695,4473.461426,4323.333496,2970,2,43,,,,0,4,0,0,0,0,0,4,4,0,0,0,2,2,4,0,,,,,,,,,,,,,,,,,,,,,,,,,,,,,,,,,,,,,,,,,,,,,,,,,,,,,,,,,,,
1782733526,1782733526,144,0,4347.179688,4303.717773,4336.282227,4282.692383,4371.922852,4081.281982,4119.102539,4444.487305,4307.563965,4345.384766,4390.512695,4404.358887,4472.436035,4316.922852,0,2,43,,,,0,4,0,0,0,0,0,4,4,0,0,0,2,2,4,0,,,,,,,,,,,,,,,,,,,,,,,,,,,,,,,,,,,,,,,,,,,,,,,,18,0,0.102821,0.333252,-0.609192,-0.712219,-0.338909,0.955561,0.03162,-46.40424,-16.299049,7.356713
1782733526,1782733526,145,0,4345.128418,4304.358887,4337.692383,4283.846191,4369.743652,4082.435791,4117.94873,4437.307617,4307.436035,4343.461426,4390,4400.256348,4475.512695,4310.256348,809,2,43,,,,0,4,0,0,0,0,0,4,4,0,0,0,2,2,4,0,,,,,,,,,,,,,,,,,,,,,,,,,,,,,,,,,,,,,,,,,,,,,,,,,,,,,,,,,,,
1782733526,1782733526,146,0,4346.282227,4304.743652,4340.512695,4285,4368.077148,4082.692383,4119.487305,4435.256348,4307.307617,4341.282227,4388.205078,4400.384766,4481.153809,4306.922852,607,2,43,,,,0,4,0,0,0,0,0,4,4,0,0,0,2,2,4,0,,,,,,,,,,,,,,,,,,,,,,,,,,,,,,,,,,,,,,,,,,,,,,,,,,,,,,,,,,,
1782733526,1782733526,147,0,4348.461426,4304.487305,4342.820313,4284.743652,4367.820313,4082.692383,4122.563965,4437.563965,4308.077148,4339.102539,4386.153809,4403.333496,4485.384766,4308.077148,2970,2,43,,,,0,4,0,0,0,0,0,4,4,0,0,0,2,2,4,0,,,,,,,,,,,,,,,,,,,,,,,,,,,,,,,,,,,,,,,,,,,,,,,,,,,,,,,,,,,
1782733526,1782733526,148,0,4348.846191,4303.846191,4343.717773,4282.94873,4368.077148,4083.461426,4124.743652,4441.153809,4310,4337.05127,4384.615234,4405.384766,4485.256348,4311.538574,0,2,43,,,,0,4,0,0,0,0,0,4,4,0,0,0,2,2,4,0,,,,,,,,,,,,,,,,,,,,,,,,,,,,,,,,,,,,,,,,,,,,,,,,,,,,,,,,,,,
1782733526,1782733526,149,0,4346.538574,4303.205078,4343.717773,4281.153809,4368.077148,4085.256348,4124.871582,4443.461426,4312.179688,4336.025879,4384.230957,4404.615234,4481.153809,4314.102539,809,2,43,,,,0,4,0,0,0,0,0,4,4,0,0,0,2,2,4,0,,,,,,,,,,,,,,,,,,,,,,,,,,,,,,,,,,,,,,,,,,,,,,,,,,,,,,,,,,,
1782733526,1782733526,150,0,4343.205078,4302.820313,4343.717773,4281.153809,4367.05127,4087.435791,4123.589844,4443.717773,4313.717773,4336.922852,4384.487305,4401.538574,4476.025879,4313.717773,607,2,43,,,,0,4,0,0,0,0,0,4,4,0,0,0,2,2,4,0,,,,,,,,,,,,,,,,,,,,,,,,,,,,,,,,,,,,,,,,,,,,,,,,,,,,,,,,,,,
1782733526,1782733526,151,0,4341.025879,4302.94873,4344.102539,4282.692383,4365.769043,4089.358887,4122.307617,4442.94873,4313.974121,4339.487305,4385,4398.333496,4473.846191,4310.897461,2970,2,43,,,,0,4,0,0,0,0,0,4,4,0,0,0,2,2,4,0,,,,,,,,,,,,,,,,,,,,,,,,,,,,,,,,,,,,,,,,,,,,,,,,,,,,,,,,,,,
1782733526,1782733526,152,0,4341.282227,4303.333496,4344.102539,4283.333496,4365.769043,4090.128174,4122.94873,4442.307617,4313.205078,4342.820313,4384.871582,4396.922852,4476.538574,4307.820313,0,2,43,,,,0,4,0,0,0,0,0,4,4,0,0,0,2,2,4,0,,,,,,,,,,,,,,,,,,,,,,,,,,,,,,,,,,,,,,,,,,,,,,,,19,0,0.105582,0.333618,-0.609375,-0.711487,-0.347699,0.928702,0.03162,-46.330482,-16.069145,7.304375
1782733526,1782733526,153,0,4342.692383,4303.461426,4342.692383,4281.153809,4367.94873,4090,4125.512695,4442.820313,4312.05127,4345,4383.717773,4398.077148,4482.307617,4306.538574,809,2,43,,,,0,4,0,0,0,0,0,4,4,0,0,0,2,2,4,0,,,,,,,,,,,,,,,,,,,,,,,,,,,,,,,,,,,,,,,,,,,,,,,,,,,,,,,,,,,
1782733526,1782733526,154,0,4342.05127,4303.077148,4339.871582,4278.589844,4371.410156,4088.974365,4128.077148,4443.717773,4311.282227,4345.128418,4381.282227,4400.641113,4486.410156,4306.538574,607,2,43,,,,0,4,0,0,0,0,0,4,4,0,0,0,2,2,4,0,,,,,,,,,,,,,,,,,,,,,,,,,,,,,,,,,,,,,,,,,,,,,,,,,,,,,,,,,,,
1782733526,1782733526,155,0,4336.666504,4302.307617,4336.794922,4282.436035,4374.358887,4087.820557,4128.589844,4443.589844,4311.025879,4343.461426,4378.333496,4403.461426,4485.512695,4306.025879,2970,2,43,,,,0,4,0,0,0,0,0,4,4,0,0,0,2,2,4,0,,,,,,,,,,,,,,,,,,,,,,,,,,,,,,,,,,,,,,,,,,,,,,,,,,,,,,,,,,,
1782733526,1782733526,156,0,4327.179688,4302.05127,4335.128418,4299.102539,4375.512695,4086.794922,4127.05127,4442.307617,4310.769043,4341.666504,4375.641113,4405.384766,4479.871582,4304.102539,0,2,43,,,,0,4,0,0,0,0,0,4,4,0,0,0,2,2,4,0,,,,,,,,,,,,,,,,,,,,,,,,,,,,,,,,,,,,,,,,,,,,,,,,,,,,,,,,,,,
1782733526,1782733526,157,0,4317.563965,4302.436035,4335.641113,4328.589844,4374.102539,4086.666748,4125.641113,4440.897461,4310.256348,4340.769043,4373.974121,4406.538574,4473.589844,4302.05127,809,2,43,,,,0,4,0,0,0,0,0,4,4,0,0,0,2,2,4,0,,,,,,,,,,,,,,,,,,,,,,,,,,,,,,,,,,,,,,,,,,,,,,,,,,,,,,,,,,,
1782733526,1782733526,158,0,4312.820313,4303.333496,4337.436035,4363.461426,4371.410156,4087.435791,4126.410156,4440.641113,4309.358887,4341.410156,4373.461426,4407.179688,4470.641113,4301.666504,607,2,43,,,,0,4,0,0,0,0,0,4,4,0,0,0,2,2,4,0,,,,,,,,,,,,,,,,,,,,,,,,,,,,,,,,,,,,,,,,,,,,,,,,,,,,,,,,,,,
1782733526,1782733526,159,0,4314.358887,4303.974121,4339.102539,4392.307617,4368.974121,4088.718018,4129.230957,4441.666504,4308.717773,4342.692383,4373.717773,4407.307617,4472.05127,4303.974121,2970,2,43,,,,0,4,0,0,0,0,0,4,4,0,0,0,2,2,4,0,,,,,,,,,,,,,,,,,,,,,,,,,,,,,,,,,,,,,,,,,,,,,,,,,,,,,,,,,,,
1782733526,1782733526,160,0,4319.615234,4304.102539,4339.102539,4406.538574,4368.077148,4089.487061,4132.307617,4442.436035,4308.974121,4343.461426,4373.974121,4407.05127,4475.769043,4307.692383,0,2,43,,,,0,4,0,0,0,0,0,4,4,0,0,0,2,2,4,0,,,,,,,,,,,,,,,,,,,,,,,,,,,,,,,,,,,,,,,,,,,,,,,,20,0,0.106784,0.333923,-0.609497,-0.71106,-0.351117,0.938469,0.032108,-46.314102,-16.195562,7.373938
1782733526,1782733526,161,0,4323.846191,4303.974121,4338.077148,4405.641113,4368.717773,4089.230713,4133.717773,4442.05127,4310,4343.333496,4373.589844,4406.282227,4478.846191,4310.384766,809,2,43,,,,0,4,0,0,0,0,0,4,4,0,0,0,2,2,4,0,,,,,,,,,,,,,,,,,,,,,,,,,,,,,,,,,,,,,,,,,,,,,,,,,,,,,,,,,,,
1782733526,1782733526,162,0,4324.743652,4303.974121,4337.307617,4397.05127,4369.615234,4088.333252,4133.333496,4440.641113,4310.897461,4342.563965,4372.820313,4405,4479.743652,4309.615234,607,2,43,,,,0,4,0,0,0,0,0,4,4,0,0,0,2,2,4,0,,,,,,,,,,,,,,,,,,,,,,,,,,,,,,,,,,,,,,,,,,,,,,,,,,,,,,,,,,,
1782733526,1782733526,163,0,4323.205078,4304.230957,4338.461426,4390.128418,4369.230957,4087.820557,4131.410156,4439.615234,4310.384766,4341.794922,4372.179688,4403.333496,4478.077148,4304.487305,2970,2,43,,,,0,4,0,0,0,0,0,4,4,0,0,0,2,2,4,0,,,,,,,,,,,,,,,,,,,,,,,,,,,,,,,,,,,,,,,,,,,,,,,,,,,,,,,,,,,
1782733526,1782733526,164,0,4321.922852,4304.615234,4341.025879,4390.512695,4367.692383,4088.461426,4128.333496,4439.743652,4308.077148,4341.410156,4371.922852,4401.538574,4474.487305,4296.025879,0,2,43,,,,0,4,0,0,0,0,0,4,4,0,0,0,2,2,4,0,,,,,,,,,,,,,,,,,,,,,,,,,,,,,,,,,,,,,,,,,,,,,,,,,,,,,,,,,,,
1782733526,1782733526,165,0,4322.820313,4304.743652,4343.461426,4396.538574,4366.025879,4090.256348,4124.743652,4440.641113,4305.256348,4341.153809,4371.794922,4399.743652,4469.743652,4286.538574,809,2,43,,,,0,4,0,0,0,0,0,4,4,0,0,0,2,2,4,0,,,,,,,,,,,,,,,,,,,,,,,,,,,,,,,,,,,,,,,,,,,,,,,,,,,,,,,,,,,
1782733526,1782733526,166,0,4326.922852,4304.230957,4343.974121,4402.179688,4365.512695,4092.435791,4121.410156,4441.794922,4303.974121,4341.282227,4371.538574,4398.205078,4464.743652,4278.461426,607,2,43,,,,0,4,0,0,0,0,0,4,4,0,0,0,2,2,4,0,,,,,,,,,,,,,,,,,,,,,,,,,,,,,,,,,,,,,,,,,,,,,,,,,,,,,,,,,,,
1782733526,1782733526,167,0,4333.333496,4303.461426,4343.205078,4402.820313,4365.897461,4093.718018,4119.615234,4442.436035,4305,4341.666504,4372.05127,4397.436035,4460.769043,4273.974121,2970,2,43,,,,0,4,0,0,0,0,0,4,4,0,0,0,2,2,4,0,,,,,,,,,,,,,,,,,,,,,,,,,,,,,,,,,,,,,,,,,,,,,,,,,,,,,,,,,,,
1782733526,1782733526,168,0,4340.512695,4302.94873,4342.94873,4398.974121,4366.153809,4093.076904,4120,4443.077148,4307.05127,4342.820313,4373.846191,4397.94873,4458.461426,4273.461426,0,2,43,,,,0,4,0,0,0,0,0,4,4,0,0,0,2,2,4,0,,,,,,,,,,,,,,,,,,,,,,,,,,,,,,,,,,,,,,,,,,,,,,,,21,0,0.108068,0.33429,-0.609497,-0.710693,-0.338909,0.938957,0.01697,-46.316025,-16.242674,7.503211
1782733526,1782733526,169,0,4345.641113,4302.820313,4344.102539,4394.615234,4365.384766,4091.281982,4121.282227,4443.717773,4308.205078,4343.717773,4376.538574,4399.487305,4458.205078,4275.512695,809,2,43,,,,0,4,0,0,0,0,0,4,4,0,0,0,2,2,4,0,,,,,,,,,,,,,,,,,,,,,,,,,,,,,,,,,,,,,,,,,,,,,,,,,,,,,,,,,,,
1782733526,1782733526,170,0,4346.153809,4302.94873,4346.153809,4393.333496,4364.102539,4089.871826,4121.538574,4444.358887,4307.692383,4343.333496,4378.974121,4400.128418,4459.230957,4276.538574,607,2,43,,,,0,4,0,0,0,0,0,4,4,0,0,0,2,2,4,0,,,,,,,,,,,,,,,,,,,,,,,,,,,,,,,,,,,,,,,,,,,,,,,,,,,,,,,,,,,
1782733526,1782733526,171,0,4341.538574,4303.333496,4346.794922,4395.897461,4363.205078,4089.615479,4119.871582,4444.615234,4306.282227,4341.153809,4379.871582,4398.589844,4459.230957,4274.102539,2970,2,43,,,,0,4,0,0,0,0,0,4,4,0,0,0,2,2,4,0,,,,,,,,,,,,,,,,,,,,,,,,,,,,,,,,,,,,,,,,,,,,,,,,,,,,,,,,,,,
1782733526,1782733526,172,0,4335.384766,4304.230957,4344.871582,4400.769043,4363.205078,4090,4118.589844,4445.769043,4305.384766,4338.333496,4379.358887,4395.769043,4456.538574,4269.871582,0,2,43,,,,0,4,0,0,0,0,0,4,4,0,0,0,2,2,4,0,,,,,,,,,,,,,,,,,,,,,,,,,,,,,,,,,,,,,,,,,,,,,,,,,,,,,,,,,,,
1782733526,1782733526,173,0,4334.358887,4305.641113,4341.410156,4406.025879,4362.820313,4090,4120.897461,4450,4306.025879,4336.666504,4379.358887,4394.487305,4451.538574,4269.358887,809,2,43,,,,0,4,0,0,0,0,0,4,4,0,0,0,2,2,4,0,,,,,,,,,,,,,,,,,,,,,,,,,,,,,,,,,,,,,,,,,,,,,,,,,,,,,,,,,,,
1782733526,1782733526,174,0,4343.077148,4307.563965,4338.846191,4411.025879,4361.410156,4089.615479,4127.692383,4458.205078,4308.077148,4337.436035,4381.410156,4397.05127,4447.94873,4276.025879,607,2,43,,,,0,4,0,0,0,0,0,4,4,0,0,0,2,2,4,0,,,,,,,,,,,,,,,,,,,,,,,,,,,,,,,,,,,,,,,,,,,,,,,,,,,,,,,,,,,
1782733526,1782733526,175,0,4358.846191,4308.974121,4339.102539,4415.384766,4359.487305,4089.615479,4136.410156,4467.563965,4310.384766,4339.743652,4385.641113,4402.179688,4450.769043,4286.922852,2970,2,43,,,,0,4,0,0,0,0,0,4,4,0,0,0,2,2,4,0,,,,,,,,,,,,,,,,,,,,,,,,,,,,,,,,,,,,,,,,,,,,,,,,,,,,,,,,,,,
1782733526,1782733526,176,0,4373.461426,4309.615234,4341.538574,4418.333496,4358.589844,4090.512939,4142.692383,4472.05127,4311.666504,4341.410156,4390,4406.025879,4462.563965,4294.487305,0,2,43,,,,0,4,0,0,0,0,0,4,4,0,0,0,2,2,4,0,,,,,,,,,,,,,,,,,,,,,,,,,,,,,,,,,,,,,,,,,,,,,,,,22,0,0.109713,0.334717,-0.60968,-0.710083,-0.348675,0.939446,0.033573,-46.084423,-16.135073,7.586223
1782733526,1782733526,177,0,4378.461426,4309.487305,4344.102539,4419.487305,4359.487305,4091.923096,4143.461426,4468.077148,4310.769043,4341.025879,4392.436035,4405.512695,4481.282227,4292.820313,809,2,43,,,,0,4,0,0,0,0,0,4,4,0,0,0,2,2,4,0,,,,,,,,,,,,,,,,,,,,,,,,,,,,,,,,,,,,,,,,,,,,,,,,,,,,,,,,,,,
1782733526,1782733526,178,0,4371.794922,4308.846191,4344.358887,4419.230957,4361.282227,4092.820557,4138.589844,4457.692383,4307.94873,4339.230957,4392.179688,4400.512695,4500.641113,4282.563965,607,2,43,,,,0,4,0,0,0,0,0,4,4,0,0,0,2,2,4,0,,,,,,,,,,,,,,,,,,,,,,,,,,,,,,,,,,,,,,,,,,,,,,,,,,,,,,,,,,,
1782733526,1782733526,179,0,4359.102539,4307.820313,4342.307617,4417.94873,4362.307617,4092.564209,4131.794922,4447.179688,4304.871582,4337.820313,4390.256348,4394.615234,4513.717773,4270.512695,2970,2,43,,,,0,4,0,0,0,0,0,4,4,0,0,0,2,2,4,0,,,,,,,,,,,,,,,,,,,,,,,,,,,,,,,,,,,,,,,,,,,,,,,,,,,,,,,,,,,
1782733526,1782733526,180,0,4349.615234,4306.538574,4339.871582,4416.538574,4361.922852,4091.923096,4128.205078,4442.436035,4303.077148,4337.436035,4388.077148,4391.794922,4517.436035,4264.615234,0,2,43,,,,0,4,0,0,0,0,0,4,4,0,0,0,2,2,4,0,,,,,,,,,,,,,,,,,,,,,,,,,,,,,,,,,,,,,,,,,,,,,,,,,,,,,,,,,,,
1782733526,1782733526,181,0,4348.974121,4305.128418,4339.487305,4415.128418,4360.897461,4092.179443,4130.641113,4445,4303.589844,4338.205078,4386.410156,4393.717773,4513.461426,4267.94873,809,2,43,,,,0,4,0,0,0,0,0,4,4,0,0,0,2,2,4,0,,,,,,,,,,,,,,,,,,,,,,,,,,,,,,,,,,,,,,,,,,,,,,,,,,,,,,,,,,,
1782733526,1782733526,182,0,4356.282227,4303.717773,4341.794922,4413.974121,4360.384766,4093.589844,4137.94873,4452.692383,4305.897461,4338.717773,4385.384766,4398.846191,4506.922852,4276.538574,607,2,43,,,,0,4,0,0,0,0,0,4,4,0,0,0,2,2,4,0,,,,,,,,,,,,,,,,,,,,,,,,,,,,,,,,,,,,,,,,,,,,,,,,,,,,,,,,,,,
1782733526,1782733526,183,0,4364.743652,4302.692383,4344.871582,4413.205078,4360.769043,4095.641113,4146.538574,4461.922852,4308.461426,4338.717773,4384.230957,4403.589844,4502.820313,4282.563965,2970,2,43,,,,0,4,0,0,0,0,0,4,4,0,0,0,2,2,4,0,,,,,,,,,,,,,,,,,,,,,,,,,,,,,,,,,,,,,,,,,,,,,,,,,,,,,,,,,,,
1782733526,1782733526,184,0,4366.538574,4302.307617,4346.025879,4412.692383,4361.025879,4096.922852,4152.563965,4469.615234,4310.256348,4338.077148,4382.94873,4405.128418,4502.563965,4280,0,2,43,,,,0,4,0,0,0,0,0,4,4,0,0,0,2,2,4,0,,,,,,,,,,,,,,,,,,,,,,,,,,,,,,,,,,,,,,,,,,,,,,,,23,0,0.11082,0.334961,-0.609985,-0.709534,-0.333537,0.944817,0.026248,-46.042645,-16.254898,7.627601
1782733526,1782733526,185,0,4359.487305,4302.94873,4344.102539,4412.563965,4360.897461,4097.179688,4154.358887,4473.205078,4310.769043,4337.436035,4381.282227,4402.436035,4504.487305,4268.205078,809,2,43,,,,0,4,0,0,0,0,0,4,4,0,0,0,2,2,4,0,,,,,,,,,,,,,,,,,,,,,,,,,,,,,,,,,,,,,,,,,,,,,,,,,,,,,,,,,,,
1782733526,1782733526,186,0,4348.717773,4304.487305,4340.128418,4412.563965,4360.256348,4096.794922,4152.307617,4472.05127,4310.128418,4336.922852,4380,4397.05127,4505.897461,4253.077148,607,2,43,,,,0,4,0,0,0,0,0,4,4,0,0,0,2,2,4,0,,,,,,,,,,,,,,,,,,,,,,,,,,,,,,,,,,,,,,,,,,,,,,,,,,,,,,,,,,,
1782733526,1782733526,187,0,4342.563965,4305.897461,4336.538574,4412.94873,4360,4097.05127,4149.358887,4467.94873,4308.846191,4336.794922,4379.615234,4392.05127,4505.512695,4242.692383,2970,2,43,,,,0,4,0,0,0,0,0,4,4,0,0,0,2,2,4,0,,,,,,,,,,,,,,,,,,,,,,,,,,,,,,,,,,,,,,,,,,,,,,,,,,,,,,,,,,,
1782733526,1782733526,188,0,4345.256348,4305.897461,4335.128418,4413.205078,4360.512695,4098.077148,4148.846191,4463.846191,4307.692383,4336.666504,4380.128418,4389.358887,4504.230957,4241.666504,0,2,43,,,,0,4,0,0,0,0,0,4,4,0,0,0,2,2,4,0,,,,,,,,,,,,,,,,,,,,,,,,,,,,,,,,,,,,,,,,,,,,,,,,,,,,,,,,,,,
1782733526,1782733526,189,0,4352.820313,4303.974121,4335.769043,4412.820313,4361.153809,4099.230957,4152.820313,4462.94873,4307.307617,4336.922852,4380.769043,4388.974121,4503.205078,4247.692383,809,2,43,,,,0,4,0,0,0,0,0,4,4,0,0,0,2,2,4,0,,,,,,,,,,,,,,,,,,,,,,,,,,,,,,,,,,,,,,,,,,,,,,,,,,,,,,,,,,,
1782733526,1782733526,190,0,4357.820313,4301.538574,4337.563965,4411.153809,4360.897461,4099.615234,4160.128418,4466.282227,4307.692383,4337.820313,4380.769043,4389.358887,4502.436035,4253.461426,607,2,43,,,,0,4,0,0,0,0,0,4,4,0,0,0,2,2,4,0,,,,,,,,,,,,,,,,,,,,,,,,,,,,,,,,,,,,,,,,,,,,,,,,,,,,,,,,,,,
1782733526,1782733526,191,0,4355.641113,4301.025879,4339.615234,4408.974121,4359.871582,4099.102539,4166.538574,4471.410156,4308.205078,4339.102539,4380.128418,4389.230957,4500.256348,4252.436035,2970,2,43,,,,0,4,0,0,0,0,0,4,4,0,0,0,2,2,4,0,,,,,,,,,,,,,,,,,,,,,,,,,,,,,,,,,,,,,,,,,,,,,,,,,,,,,,,,,,,
1782733526,1782733526,192,0,4348.333496,4303.717773,4341.410156,4407.692383,4359.102539,4098.461426,4167.436035,4474.358887,4308.205078,4340.641113,4379.615234,4388.077148,4496.410156,4243.461426,0,2,43,,,,0,4,0,0,0,0,0,4,4,0,0,0,2,2,4,0,,,,,,,,,,,,,,,,,,,,,,,,,,,,,,,,,,,,,,,,,,,,,,,,24,0,0.112019,0.335205,-0.610413,-0.708862,-0.348675,0.949213,0.021365,-46.05505,-16.312742,7.581507
1782733526,1782733526,193,0,4342.179688,4307.692383,4342.307617,4407.436035,4359.358887,4099.230957,4162.05127,4472.307617,4307.563965,4341.282227,4379.871582,4386.025879,4491.538574,4230.769043,809,2,43,,,,0,4,0,0,0,0,0,4,4,0,0,0,2,2,4,0,,,,,,,,,,,,,,,,,,,,,,,,,,,,,,,,,,,,,,,,,,,,,,,,,,,,,,,,,,,
1782733526,1782733526,194,0,4341.153809,4310.384766,4341.410156,4407.820313,4360.641113,4101.410156,4153.717773,4465.641113,4306.538574,4340.769043,4380.769043,4383.461426,4487.692383,4220.512695,607,2,43,,,,0,4,0,0,0,0,0,4,4,0,0,0,2,2,4,0,,,,,,,,,,,,,,,,,,,,,,,,,,,,,,,,,,,,,,,,,,,,,,,,,,,,,,,,,,,
1782733526,1782733526,195,0,4344.743652,4310.128418,4338.974121,4407.692383,4361.666504,4103.717773,4148.974121,4458.589844,4305.897461,4339.102539,4381.666504,4380.769043,4485.897461,4217.307617,2970,2,43,,,,0,4,0,0,0,0,0,4,4,0,0,0,2,2,4,0,,,,,,,,,,,,,,,,,,,,,,,,,,,,,,,,,,,,,,,,,,,,,,,,,,,,,,,,,,,
1782733526,1782733526,196,0,4349.230957,4307.820313,4336.666504,4406.794922,4361.538574,4104.358887,4152.307617,4456.666504,4306.153809,4337.692383,4381.794922,4379.358887,4486.666504,4222.820313,0,2,43,,,,0,4,0,0,0,0,0,4,4,0,0,0,2,2,4,0,,,,,,,,,,,,,,,,,,,,,,,,,,,,,,,,,,,,,,,,,,,,,,,,,,,,,,,,,,,
1782733526,1782733526,197,0,4351.922852,4305.256348,4336.666504,4405.641113,4360.641113,4103.461426,4162.436035,4462.05127,4307.307617,4337.563965,4381.153809,4380.641113,4490,4234.358887,809,2,43,,,,0,4,0,0,0,0,0,4,4,0,0,0,2,2,4,0,,,,,,,,,,,,,,,,,,,,,,,,,,,,,,,,,,,,,,,,,,,,,,,,,,,,,,,,,,,
1782733526,1782733526,198,0,4352.820313,4303.717773,4339.358887,4404.615234,4359.743652,4102.307617,4173.461426,4472.307617,4308.589844,4339.230957,4380,4384.487305,4495,4246.794922,607,2,43,,,,0,4,0,0,0,0,0,4,4,0,0,0,2,2,4,0,,,,,,,,,,,,,,,,,,,,,,,,,,,,,,,,,,,,,,,,,,,,,,,,,,,,,,,,,,,
1782733526,1782733526,199,0,4352.94873,4303.333496,4342.436035,4404.230957,4359.871582,4102.05127,4179.102539,4480.769043,4308.846191,4341.794922,4378.461426,4389.358887,4500.256348,4254.615234,2970,2,43,,,,0,4,0,0,0,0,0,4,4,0,0,0,2,2,4,0,,,,,,,,,,,,,,,,,,,,,,,,,,,,,,,,,,,,,,,,,,,,,,,,,,,,,,,,,,,
1782733526,1782733526,200,0,4353.333496,4303.589844,4343.589844,4404.102539,4360.897461,4103.077148,4177.179688,4482.692383,4307.820313,4343.205078,4377.179688,4392.94873,4502.94873,4255.897461,0,2,43,,,,0,4,0,0,0,0,0,4,4,0,0,0,2,2,4,0,,,,,,,,,,,,,,,,,,,,,,,,,,,,,,,,,,,,,,,,,,,,,,,,25,0,0.113539,0.33606,-0.611572,-0.707214,-0.3267,0.941399,0.004761,-46.099545,-16.281467,7.540023
1782733526,1782733526,201,0,4355,4304.615234,4341.666504,4404.487305,4362.307617,4105,4170.769043,4478.333496,4306.410156,4342.179688,4376.922852,4394.615234,4501.666504,4252.692383,809,2,43,,,,0,4,0,0,0,0,0,4,4,0,0,0,2,2,4,0,,,,,,,,,,,,,,,,,,,,,,,,,,,,,,,,,,,,,,,,,,,,,,,,,,,,,,,,,,,
